*RAS_DATA_START
*RAS_HEADER_START
*DISP_FMT_X "%.2f"
*DISP_FMT_Y "%.0f"
*DISP_FULLSCALE "42549.0000000000"
*DISP_LINE_COLOR "255.0000000000"
*DISP_LINE_STYLE "0.0000000000"
*DISP_LINE_WIDTH "0.2500000000"
*DISP_NOTE "測定データ-3"
*DISP_OFFSET_Y "0.0000000000"
*DISP_PEAKSEARCH_UNIT_Y "cps"
*DISP_RANGE_BOTTOM "0.0000000000"
*DISP_RANGE_LEFT "20.0000000000"
*DISP_RANGE_LOGCUTOFF "0.0100000000"
*DISP_RANGE_RIGHT "90.0000000000"
*DISP_RANGE_TOP "42549.0000000000"
*DISP_SCALE_MODE_Y "0.0000000000"
*DISP_TAB_NAME "2θ/θ"
*DISP_TITLE_Y "強度"
*DISP_UNIT_Y "cps"
*DISP_WINDOW_NAME "MSG_MACROENGINE"
*FILE_COMMENT " "
*FILE_MD5 ""
*FILE_MEMO " "
*FILE_OPERATOR "Administrator"
*FILE_SAMPLE " "
*FILE_TYPE "RAS_RAW"
*FILE_USERGROUP "システムマネージャ"
*FILE_VERSION "1.0000000000"
*HW_ATTACHMENT_ID "ATT0025"
*HW_ATTACHMENT_NAME "標準|Standard"
*HW_COUNTER_ID-0 "CUT0025"
*HW_COUNTER_ID-1 "CUT0020"
*HW_COUNTER_ID-2 "CUT0020"
*HW_COUNTER_ID-3 "CSL0021"
*HW_COUNTER_ID-4 "CMC0021"
*HW_COUNTER_NAME-0 "D/teX Ultra|D/teX Ultra"
*HW_COUNTER_NAME-1 "None|None"
*HW_COUNTER_NAME-2 "None|None"
*HW_COUNTER_NAME-3 "BBM|BBM"
*HW_COUNTER_NAME-4 "検出器モノクロメータ|Detector monochromator"
*HW_COUNTER_SELECT_NAME "D/teX Ultra|D/teX Ultra"
*HW_GONIOMETER_ID "GON0023"
*HW_GONIOMETER_NAME "SmartLab|SmartLab"
*HW_GONIOMETER_RADIUS-0 "90.0"
*HW_GONIOMETER_RADIUS-1 "114.0"
*HW_GONIOMETER_RADIUS-2 "190.0"
*HW_GONIOMETER_RADIUS-3 "300.0"
*HW_GONIOMETER_RADIUS-4 "187.0"
*HW_GONIOMETER_RADIUS-5 "300.0"
*HW_GONIOMETER_RADIUS-6 "113.0"
*HW_GONIOMETER_RADIUS-7 "331.0"
*HW_I_OPT_ID-0 "CBO0021"
*HW_I_OPT_ID-1 "ICR0023"
*HW_I_OPT_ID-2 "ISL0021"
*HW_I_OPT_ID-3 "ISO0021"
*HW_I_OPT_ID-4 "IAD0021"
*HW_I_OPT_ID-5 "IPR0001"
*HW_I_OPT_NAME-0 "CBOユニット|CBO unit"
*HW_I_OPT_NAME-1 "標準入射光学ユニット|Standard incident optical unit"
*HW_I_OPT_NAME-2 "標準入射スリットボックス|Standard incident slit box"
*HW_I_OPT_NAME-3 "入射平行スリット|Incident parallel slit"
*HW_I_OPT_NAME-4 "長手制限スリット|Length limiting slit"
*HW_I_OPT_NAME-5 "None|None"
*HW_R_ATTENUATER_AUTOMODE "0"
*HW_R_OPT_ID-0 "RSS0021"
*HW_R_OPT_ID-1 "RCR0023"
*HW_R_OPT_ID-2 "RSO0021"
*HW_R_OPT_ID-3 "RRS0021"
*HW_R_OPT_ID-4 "ATN0021"
*HW_R_OPT_ID-5 "RFL0021"
*HW_R_OPT_ID-6 "RAD0021"
*HW_R_OPT_NAME-0 "標準受光スリットボックス1|Standard receiving slit box # 1"
*HW_R_OPT_NAME-1 "標準受光光学ユニット1|Standard receiving unit # 1"
*HW_R_OPT_NAME-2 "標準受光光学ユニット2|Standard receiving optical unit # 2"
*HW_R_OPT_NAME-3 "標準受光スリットボックス2|Standard receiving slit box # 2"
*HW_R_OPT_NAME-4 "標準アッテネータ|Standard Attenuator"
*HW_R_OPT_NAME-5 "Cu Kβ|Cu K-beta"
*HW_R_OPT_NAME-6 "調整用受光スリット|Alignment receiving slit"
*HW_SAMPLE_HOLDER_ID "SMP0023"
*HW_SAMPLE_HOLDER_NAME "標準Zステージ|Standard Z stage"
*HW_XG_CURRENT_MAX "50"
*HW_XG_CURRENT_MIN "2"
*HW_XG_CURRENT_RESOLUTION "2"
*HW_XG_CURRENT_UNIT "mA"
*HW_XG_FOCUS "1mm x 10mm"
*HW_XG_FOCUS_TYPE "Normal"
*HW_XG_ID ""
*HW_XG_NAME "3kW 封入管(ID:1200)|3kW Sealed tube(ID:1200)"
*HW_XG_TARGET_ATOMIC_NUMBER "29.0000000000"
*HW_XG_TARGET_NAME "Cu"
*HW_XG_TYPE "Hermetic"
*HW_XG_VOLTAGE_MAX "60"
*HW_XG_VOLTAGE_MIN "20"
*HW_XG_VOLTAGE_RESOLUTION "2"
*HW_XG_VOLTAGE_UNIT "kV"
*HW_XG_WATT_MAX "2"
*HW_XG_WATT_UNIT "kW"
*HW_XG_WAVE_LENGTH_ALPHA1 "1.540593"
*HW_XG_WAVE_LENGTH_ALPHA2 "1.544414"
*HW_XG_WAVE_LENGTH_BETA "1.392250"
*MEAS_COND_AXIS_NAME-0 "2θ/θ"
*MEAS_COND_AXIS_NAME-1 "2θ"
*MEAS_COND_AXIS_NAME-2 "ω"
*MEAS_COND_AXIS_NAME-3 "Z"
*MEAS_COND_AXIS_NAME-4 "2θ/ω"
*MEAS_COND_AXIS_NAME-5 "θs"
*MEAS_COND_AXIS_NAME-6 "θd"
*MEAS_COND_AXIS_NAME-7 "Ts"
*MEAS_COND_AXIS_NAME-8 "CBO選択スリット"
*MEAS_COND_AXIS_NAME-9 "M"
*MEAS_COND_AXIS_NAME-10 "入射平行スリット"
*MEAS_COND_AXIS_NAME-11 "入射スリット"
*MEAS_COND_AXIS_NAME-12 ""
*MEAS_COND_AXIS_NAME-13 "Zs"
*MEAS_COND_AXIS_NAME-14 "入射光学素子"
*MEAS_COND_AXIS_NAME-15 "長手制限スリット"
*MEAS_COND_AXIS_NAME-16 "センタースリット"
*MEAS_COND_AXIS_NAME-17 "フィルター"
*MEAS_COND_AXIS_NAME-18 "受光スリット1"
*MEAS_COND_AXIS_NAME-19 "受光スリット2"
*MEAS_COND_AXIS_NAME-20 "受光光学素子"
*MEAS_COND_AXIS_NAME-21 "受光平行スリット"
*MEAS_COND_AXIS_NAME-22 "調整用受光スリット"
*MEAS_COND_AXIS_NAME-23 ""
*MEAS_COND_AXIS_NAME-24 ""
*MEAS_COND_AXIS_NAME-25 "Zd"
*MEAS_COND_AXIS_NAME-26 "アッテネータ"
*MEAS_COND_AXIS_NAME-27 "検出器モノクロメータ"
*MEAS_COND_AXIS_NAME-28 "モノクロメータスリット"
*MEAS_COND_AXIS_NAME-29 "プライマリビーム"
*MEAS_COND_AXIS_NAME-30 "PHA"
*MEAS_COND_AXIS_NAME_INTERNAL-0 "TwoThetaTheta"
*MEAS_COND_AXIS_NAME_INTERNAL-1 "TwoTheta"
*MEAS_COND_AXIS_NAME_INTERNAL-2 "Omega"
*MEAS_COND_AXIS_NAME_INTERNAL-3 "Z"
*MEAS_COND_AXIS_NAME_INTERNAL-4 "TwoThetaOmega"
*MEAS_COND_AXIS_NAME_INTERNAL-5 "ThetaS"
*MEAS_COND_AXIS_NAME_INTERNAL-6 "ThetaD"
*MEAS_COND_AXIS_NAME_INTERNAL-7 "Ts"
*MEAS_COND_AXIS_NAME_INTERNAL-8 "CBO"
*MEAS_COND_AXIS_NAME_INTERNAL-9 "CBO-M"
*MEAS_COND_AXIS_NAME_INTERNAL-10 "IncidentSollerSlit"
*MEAS_COND_AXIS_NAME_INTERNAL-11 "IncidentSlitBox"
*MEAS_COND_AXIS_NAME_INTERNAL-12 "IncidentSlitBox-_Axis"
*MEAS_COND_AXIS_NAME_INTERNAL-13 "Zs"
*MEAS_COND_AXIS_NAME_INTERNAL-14 "IncidentMonochromator"
*MEAS_COND_AXIS_NAME_INTERNAL-15 "IncidentAxdSlit"
*MEAS_COND_AXIS_NAME_INTERNAL-16 "CenterSlit"
*MEAS_COND_AXIS_NAME_INTERNAL-17 "Filter"
*MEAS_COND_AXIS_NAME_INTERNAL-18 "ReceivingSlitBox1"
*MEAS_COND_AXIS_NAME_INTERNAL-19 "ReceivingSlitBox2"
*MEAS_COND_AXIS_NAME_INTERNAL-20 "ReceivingOptics"
*MEAS_COND_AXIS_NAME_INTERNAL-21 "ReceivingSollerSlit"
*MEAS_COND_AXIS_NAME_INTERNAL-22 "ReceivingAxdSlit"
*MEAS_COND_AXIS_NAME_INTERNAL-23 "ReceivingSlitBox1-_Axis"
*MEAS_COND_AXIS_NAME_INTERNAL-24 "ReceivingSlitBox2-_Axis"
*MEAS_COND_AXIS_NAME_INTERNAL-25 "ReceivingSlitBox2-Zd"
*MEAS_COND_AXIS_NAME_INTERNAL-26 "Attenuator"
*MEAS_COND_AXIS_NAME_INTERNAL-27 "CounterMonochromator"
*MEAS_COND_AXIS_NAME_INTERNAL-28 "CounterSlit"
*MEAS_COND_AXIS_NAME_INTERNAL-29 "IncidentPrimary"
*MEAS_COND_AXIS_NAME_INTERNAL-30 "PHA"
*MEAS_COND_AXIS_NAME_MAGICNO-0 "83951616.0000000000"
*MEAS_COND_AXIS_NAME_MAGICNO-1 "268632064.0000000000"
*MEAS_COND_AXIS_NAME_MAGICNO-2 "268500992.0000000000"
*MEAS_COND_AXIS_NAME_MAGICNO-3 "285278208.0000000000"
*MEAS_COND_AXIS_NAME_MAGICNO-4 "83951616.0000000000"
*MEAS_COND_AXIS_NAME_MAGICNO-5 "131072.0000000000"
*MEAS_COND_AXIS_NAME_MAGICNO-6 "131072.0000000000"
*MEAS_COND_AXIS_NAME_MAGICNO-7 "318898176.0000000000"
*MEAS_COND_AXIS_NAME_MAGICNO-8 "20971521.0000000000"
*MEAS_COND_AXIS_NAME_MAGICNO-9 "285343744.0000000000"
*MEAS_COND_AXIS_NAME_MAGICNO-10 "20971521.0000000000"
*MEAS_COND_AXIS_NAME_MAGICNO-11 "22020097.0000000000"
*MEAS_COND_AXIS_NAME_MAGICNO-12 "25165824.0000000000"
*MEAS_COND_AXIS_NAME_MAGICNO-13 "318898176.0000000000"
*MEAS_COND_AXIS_NAME_MAGICNO-14 "1.0000000000"
*MEAS_COND_AXIS_NAME_MAGICNO-15 "20971521.0000000000"
*MEAS_COND_AXIS_NAME_MAGICNO-16 "20971521.0000000000"
*MEAS_COND_AXIS_NAME_MAGICNO-17 "20971521.0000000000"
*MEAS_COND_AXIS_NAME_MAGICNO-18 "23068673.0000000000"
*MEAS_COND_AXIS_NAME_MAGICNO-19 "23068673.0000000000"
*MEAS_COND_AXIS_NAME_MAGICNO-20 "20971521.0000000000"
*MEAS_COND_AXIS_NAME_MAGICNO-21 "20971521.0000000000"
*MEAS_COND_AXIS_NAME_MAGICNO-22 "20971521.0000000000"
*MEAS_COND_AXIS_NAME_MAGICNO-23 "25165824.0000000000"
*MEAS_COND_AXIS_NAME_MAGICNO-24 "25165824.0000000000"
*MEAS_COND_AXIS_NAME_MAGICNO-25 "285343744.0000000000"
*MEAS_COND_AXIS_NAME_MAGICNO-26 "17301505.0000000000"
*MEAS_COND_AXIS_NAME_MAGICNO-27 "20971521.0000000000"
*MEAS_COND_AXIS_NAME_MAGICNO-28 "20971521.0000000000"
*MEAS_COND_AXIS_NAME_MAGICNO-29 "20971521.0000000000"
*MEAS_COND_AXIS_NAME_MAGICNO-30 "0.0000000000"
*MEAS_COND_AXIS_OFFSET-0 "-"
*MEAS_COND_AXIS_OFFSET-1 "-0.1081000000"
*MEAS_COND_AXIS_OFFSET-2 "0.3758000000"
*MEAS_COND_AXIS_OFFSET-3 "-"
*MEAS_COND_AXIS_OFFSET-4 "-"
*MEAS_COND_AXIS_OFFSET-5 "0.3758000000"
*MEAS_COND_AXIS_OFFSET-6 "-0.4839000000"
*MEAS_COND_AXIS_OFFSET-7 "-"
*MEAS_COND_AXIS_OFFSET-8 "-"
*MEAS_COND_AXIS_OFFSET-9 "-"
*MEAS_COND_AXIS_OFFSET-10 "-"
*MEAS_COND_AXIS_OFFSET-11 "-"
*MEAS_COND_AXIS_OFFSET-12 "-"
*MEAS_COND_AXIS_OFFSET-13 "-"
*MEAS_COND_AXIS_OFFSET-14 "-"
*MEAS_COND_AXIS_OFFSET-15 "-"
*MEAS_COND_AXIS_OFFSET-16 "-"
*MEAS_COND_AXIS_OFFSET-17 "-"
*MEAS_COND_AXIS_OFFSET-18 "-"
*MEAS_COND_AXIS_OFFSET-19 "-"
*MEAS_COND_AXIS_OFFSET-20 "-"
*MEAS_COND_AXIS_OFFSET-21 "-"
*MEAS_COND_AXIS_OFFSET-22 "-"
*MEAS_COND_AXIS_OFFSET-23 "-"
*MEAS_COND_AXIS_OFFSET-24 "-"
*MEAS_COND_AXIS_OFFSET-25 "-"
*MEAS_COND_AXIS_OFFSET-26 "-"
*MEAS_COND_AXIS_OFFSET-27 "-"
*MEAS_COND_AXIS_OFFSET-28 "-"
*MEAS_COND_AXIS_OFFSET-29 "-"
*MEAS_COND_AXIS_OFFSET-30 "-"
*MEAS_COND_AXIS_POSITION-0 "0.0000000000"
*MEAS_COND_AXIS_POSITION-1 "0.0000000000"
*MEAS_COND_AXIS_POSITION-2 "0.0000000000"
*MEAS_COND_AXIS_POSITION-3 "-0.5500000000"
*MEAS_COND_AXIS_POSITION-4 "0.0000000000"
*MEAS_COND_AXIS_POSITION-5 "0.0000000000"
*MEAS_COND_AXIS_POSITION-6 "0.0000000000"
*MEAS_COND_AXIS_POSITION-7 "-0.4278800000"
*MEAS_COND_AXIS_POSITION-8 "BB"
*MEAS_COND_AXIS_POSITION-9 "0.0000000000"
*MEAS_COND_AXIS_POSITION-10 "Soller_slit_5.0deg"
*MEAS_COND_AXIS_POSITION-11 "2/3deg"
*MEAS_COND_AXIS_POSITION-12 "2.2088000000"
*MEAS_COND_AXIS_POSITION-13 "-0.4140600000"
*MEAS_COND_AXIS_POSITION-14 "0.0000000000"
*MEAS_COND_AXIS_POSITION-15 "10.0mm"
*MEAS_COND_AXIS_POSITION-16 "None"
*MEAS_COND_AXIS_POSITION-17 "Cu_K-beta"
*MEAS_COND_AXIS_POSITION-18 "13.000mm"
*MEAS_COND_AXIS_POSITION-19 "13.000mm"
*MEAS_COND_AXIS_POSITION-20 "No_unit"
*MEAS_COND_AXIS_POSITION-21 "Soller_slit_5.0deg"
*MEAS_COND_AXIS_POSITION-22 "None"
*MEAS_COND_AXIS_POSITION-23 "13.0000000000"
*MEAS_COND_AXIS_POSITION-24 "13.0000000000"
*MEAS_COND_AXIS_POSITION-25 "0.0109400000"
*MEAS_COND_AXIS_POSITION-26 "Open"
*MEAS_COND_AXIS_POSITION-27 "None"
*MEAS_COND_AXIS_POSITION-28 "None"
*MEAS_COND_AXIS_POSITION-29 "None"
*MEAS_COND_AXIS_POSITION-30 "38.0000000000"
*MEAS_COND_AXIS_UNIT-0 "deg"
*MEAS_COND_AXIS_UNIT-1 "deg"
*MEAS_COND_AXIS_UNIT-2 "deg"
*MEAS_COND_AXIS_UNIT-3 "mm"
*MEAS_COND_AXIS_UNIT-4 "deg"
*MEAS_COND_AXIS_UNIT-5 "deg"
*MEAS_COND_AXIS_UNIT-6 "deg"
*MEAS_COND_AXIS_UNIT-7 "mm"
*MEAS_COND_AXIS_UNIT-8 ""
*MEAS_COND_AXIS_UNIT-9 "pulse"
*MEAS_COND_AXIS_UNIT-10 ""
*MEAS_COND_AXIS_UNIT-11 ""
*MEAS_COND_AXIS_UNIT-12 "mm"
*MEAS_COND_AXIS_UNIT-13 "mm"
*MEAS_COND_AXIS_UNIT-14 ""
*MEAS_COND_AXIS_UNIT-15 ""
*MEAS_COND_AXIS_UNIT-16 ""
*MEAS_COND_AXIS_UNIT-17 ""
*MEAS_COND_AXIS_UNIT-18 ""
*MEAS_COND_AXIS_UNIT-19 ""
*MEAS_COND_AXIS_UNIT-20 ""
*MEAS_COND_AXIS_UNIT-21 ""
*MEAS_COND_AXIS_UNIT-22 ""
*MEAS_COND_AXIS_UNIT-23 "mm"
*MEAS_COND_AXIS_UNIT-24 "mm"
*MEAS_COND_AXIS_UNIT-25 "mm"
*MEAS_COND_AXIS_UNIT-26 ""
*MEAS_COND_AXIS_UNIT-27 ""
*MEAS_COND_AXIS_UNIT-28 ""
*MEAS_COND_AXIS_UNIT-29 ""
*MEAS_COND_AXIS_UNIT-30 "div"
*MEAS_COND_COUNTER_CNTLOSS_CORR "0.0000000000"
*MEAS_COND_COUNTER_PHABASE "38.0000000000"
*MEAS_COND_COUNTER_PHAWINDOW "16.0000000000"
*MEAS_COND_COUNTER_PHA_UNIT "div"
*MEAS_COND_COUNTER_TAUDIFF "30.0000000000"
*MEAS_COND_COUNTER_TAUINT "0.0000000000"
*MEAS_COND_IRRADIATION_MODE "OFF"
*MEAS_COND_IRRADIATION_WIDTH ""
*MEAS_COND_OPT_ATTR "集中法"
*MEAS_COND_OPT_NAME "@集中法"
*MEAS_COND_UNSYMMETRIC_MODE "OFF"
*MEAS_COND_XG_CURRENT "30.0000000000"
*MEAS_COND_XG_VOLTAGE "40.0000000000"
*MEAS_COND_XG_WAVE_TYPE "Ka"
*MEAS_DATA_COUNT "3501.0000000000"
*MEAS_SCAN_AXIS_X "2θ/θ"
*MEAS_SCAN_AXIS_X_INTERNAL "TwoThetaTheta"
*MEAS_SCAN_END_TIME "09/10/20 17:03:54"
*MEAS_SCAN_MODE "CONTINUOUS"
*MEAS_SCAN_MONITOR "0"
*MEAS_SCAN_RESOLUTION_X "0.0002"
*MEAS_SCAN_SPEED "1.0"
*MEAS_SCAN_SPEED_UNIT "deg/min"
*MEAS_SCAN_START "20.0000000000"
*MEAS_SCAN_START_TIME "09/10/20 15:51:00"
*MEAS_SCAN_STEP "0.0200000000"
*MEAS_SCAN_STOP "90.0000000000"
*MEAS_SCAN_UNIT_X "deg"
*MEAS_SCAN_UNIT_Y "counts"
*RAS_HEADER_END
*RAS_INT_START
20.0000 11034.0000 1.0000
20.0200 10852.0000 1.0000
20.0400 10879.0000 1.0000
20.0600 10897.0000 1.0000
20.0800 11090.0000 1.0000
20.1000 11048.0000 1.0000
20.1200 10883.0000 1.0000
20.1400 10916.0000 1.0000
20.1600 10902.0000 1.0000
20.1800 10946.0000 1.0000
20.2000 10977.0000 1.0000
20.2200 11051.0000 1.0000
20.2400 10999.0000 1.0000
20.2600 10777.0000 1.0000
20.2800 10871.0000 1.0000
20.3000 10944.0000 1.0000
20.3200 10906.0000 1.0000
20.3400 10856.0000 1.0000
20.3600 10785.0000 1.0000
20.3800 10751.0000 1.0000
20.4000 10922.0000 1.0000
20.4200 10950.0000 1.0000
20.4400 10836.0000 1.0000
20.4600 11028.0000 1.0000
20.4800 10908.0000 1.0000
20.5000 10796.0000 1.0000
20.5200 10883.0000 1.0000
20.5400 11046.0000 1.0000
20.5600 11117.0000 1.0000
20.5800 10943.0000 1.0000
20.6000 11087.0000 1.0000
20.6200 11311.0000 1.0000
20.6400 11183.0000 1.0000
20.6600 11292.0000 1.0000
20.6800 11387.0000 1.0000
20.7000 11618.0000 1.0000
20.7200 11558.0000 1.0000
20.7400 11711.0000 1.0000
20.7600 12055.0000 1.0000
20.7800 12662.0000 1.0000
20.8000 13048.0000 1.0000
20.8200 14132.0000 1.0000
20.8400 16070.0000 1.0000
20.8600 16328.0000 1.0000
20.8800 16333.0000 1.0000
20.9000 16990.0000 1.0000
20.9200 16588.0000 1.0000
20.9400 14566.0000 1.0000
20.9600 13581.0000 1.0000
20.9800 12714.0000 1.0000
21.0000 11809.0000 1.0000
21.0200 11539.0000 1.0000
21.0400 11324.0000 1.0000
21.0600 11252.0000 1.0000
21.0800 11261.0000 1.0000
21.1000 10995.0000 1.0000
21.1200 11053.0000 1.0000
21.1400 11079.0000 1.0000
21.1600 10950.0000 1.0000
21.1800 11069.0000 1.0000
21.2000 11071.0000 1.0000
21.2200 10764.0000 1.0000
21.2400 11108.0000 1.0000
21.2600 10949.0000 1.0000
21.2800 10934.0000 1.0000
21.3000 10947.0000 1.0000
21.3200 10960.0000 1.0000
21.3400 11005.0000 1.0000
21.3600 10975.0000 1.0000
21.3800 10971.0000 1.0000
21.4000 10862.0000 1.0000
21.4200 10928.0000 1.0000
21.4400 10915.0000 1.0000
21.4600 11062.0000 1.0000
21.4800 10995.0000 1.0000
21.5000 10899.0000 1.0000
21.5200 10964.0000 1.0000
21.5400 11016.0000 1.0000
21.5600 11002.0000 1.0000
21.5800 10961.0000 1.0000
21.6000 10959.0000 1.0000
21.6200 10952.0000 1.0000
21.6400 10947.0000 1.0000
21.6600 11003.0000 1.0000
21.6800 10911.0000 1.0000
21.7000 10958.0000 1.0000
21.7200 10830.0000 1.0000
21.7400 10801.0000 1.0000
21.7600 10817.0000 1.0000
21.7800 10964.0000 1.0000
21.8000 11169.0000 1.0000
21.8200 10897.0000 1.0000
21.8400 11020.0000 1.0000
21.8600 11082.0000 1.0000
21.8800 10912.0000 1.0000
21.9000 10937.0000 1.0000
21.9200 11087.0000 1.0000
21.9400 10974.0000 1.0000
21.9600 10942.0000 1.0000
21.9800 10827.0000 1.0000
22.0000 10703.0000 1.0000
22.0200 11008.0000 1.0000
22.0400 10852.0000 1.0000
22.0600 10906.0000 1.0000
22.0800 10860.0000 1.0000
22.1000 10944.0000 1.0000
22.1200 10913.0000 1.0000
22.1400 10989.0000 1.0000
22.1600 10843.0000 1.0000
22.1800 10735.0000 1.0000
22.2000 10876.0000 1.0000
22.2200 10892.0000 1.0000
22.2400 10780.0000 1.0000
22.2600 10823.0000 1.0000
22.2800 10958.0000 1.0000
22.3000 10981.0000 1.0000
22.3200 10777.0000 1.0000
22.3400 10790.0000 1.0000
22.3600 10898.0000 1.0000
22.3800 10846.0000 1.0000
22.4000 10835.0000 1.0000
22.4200 10843.0000 1.0000
22.4400 10844.0000 1.0000
22.4600 10795.0000 1.0000
22.4800 10693.0000 1.0000
22.5000 10787.0000 1.0000
22.5200 10777.0000 1.0000
22.5400 10955.0000 1.0000
22.5600 10948.0000 1.0000
22.5800 10859.0000 1.0000
22.6000 10928.0000 1.0000
22.6200 10895.0000 1.0000
22.6400 10851.0000 1.0000
22.6600 10884.0000 1.0000
22.6800 10815.0000 1.0000
22.7000 11019.0000 1.0000
22.7200 10742.0000 1.0000
22.7400 10866.0000 1.0000
22.7600 10919.0000 1.0000
22.7800 10724.0000 1.0000
22.8000 10978.0000 1.0000
22.8200 10746.0000 1.0000
22.8400 11128.0000 1.0000
22.8600 10877.0000 1.0000
22.8800 11043.0000 1.0000
22.9000 10890.0000 1.0000
22.9200 10775.0000 1.0000
22.9400 10811.0000 1.0000
22.9600 10921.0000 1.0000
22.9800 10960.0000 1.0000
23.0000 10955.0000 1.0000
23.0200 10839.0000 1.0000
23.0400 10968.0000 1.0000
23.0600 10940.0000 1.0000
23.0800 10902.0000 1.0000
23.1000 10983.0000 1.0000
23.1200 11023.0000 1.0000
23.1400 10901.0000 1.0000
23.1600 10824.0000 1.0000
23.1800 10898.0000 1.0000
23.2000 10763.0000 1.0000
23.2200 10833.0000 1.0000
23.2400 10819.0000 1.0000
23.2600 10744.0000 1.0000
23.2800 10792.0000 1.0000
23.3000 10878.0000 1.0000
23.3200 10850.0000 1.0000
23.3400 11108.0000 1.0000
23.3600 10956.0000 1.0000
23.3800 10979.0000 1.0000
23.4000 10931.0000 1.0000
23.4200 10847.0000 1.0000
23.4400 10984.0000 1.0000
23.4600 11022.0000 1.0000
23.4800 10825.0000 1.0000
23.5000 10832.0000 1.0000
23.5200 10777.0000 1.0000
23.5400 10895.0000 1.0000
23.5600 10745.0000 1.0000
23.5800 10688.0000 1.0000
23.6000 11039.0000 1.0000
23.6200 10898.0000 1.0000
23.6400 11036.0000 1.0000
23.6600 10992.0000 1.0000
23.6800 10953.0000 1.0000
23.7000 10631.0000 1.0000
23.7200 11042.0000 1.0000
23.7400 10944.0000 1.0000
23.7600 10831.0000 1.0000
23.7800 10903.0000 1.0000
23.8000 11009.0000 1.0000
23.8200 11102.0000 1.0000
23.8400 11040.0000 1.0000
23.8600 11194.0000 1.0000
23.8800 11107.0000 1.0000
23.9000 11134.0000 1.0000
23.9200 11285.0000 1.0000
23.9400 11564.0000 1.0000
23.9600 11408.0000 1.0000
23.9800 11621.0000 1.0000
24.0000 11758.0000 1.0000
24.0200 11924.0000 1.0000
24.0400 12169.0000 1.0000
24.0600 12613.0000 1.0000
24.0800 13062.0000 1.0000
24.1000 13595.0000 1.0000
24.1200 14277.0000 1.0000
24.1400 14988.0000 1.0000
24.1600 15727.0000 1.0000
24.1800 15800.0000 1.0000
24.2000 15340.0000 1.0000
24.2200 14916.0000 1.0000
24.2400 14128.0000 1.0000
24.2600 13192.0000 1.0000
24.2800 12629.0000 1.0000
24.3000 12132.0000 1.0000
24.3200 11593.0000 1.0000
24.3400 11437.0000 1.0000
24.3600 11384.0000 1.0000
24.3800 11242.0000 1.0000
24.4000 11140.0000 1.0000
24.4200 11021.0000 1.0000
24.4400 11181.0000 1.0000
24.4600 10963.0000 1.0000
24.4800 10972.0000 1.0000
24.5000 11047.0000 1.0000
24.5200 10899.0000 1.0000
24.5400 10766.0000 1.0000
24.5600 10815.0000 1.0000
24.5800 10935.0000 1.0000
24.6000 10838.0000 1.0000
24.6200 10727.0000 1.0000
24.6400 10972.0000 1.0000
24.6600 10771.0000 1.0000
24.6800 10772.0000 1.0000
24.7000 10860.0000 1.0000
24.7200 10756.0000 1.0000
24.7400 10934.0000 1.0000
24.7600 10755.0000 1.0000
24.7800 10849.0000 1.0000
24.8000 10871.0000 1.0000
24.8200 10848.0000 1.0000
24.8400 10860.0000 1.0000
24.8600 10822.0000 1.0000
24.8800 10929.0000 1.0000
24.9000 10962.0000 1.0000
24.9200 10735.0000 1.0000
24.9400 10812.0000 1.0000
24.9600 10788.0000 1.0000
24.9800 10982.0000 1.0000
25.0000 10725.0000 1.0000
25.0200 10783.0000 1.0000
25.0400 10884.0000 1.0000
25.0600 10801.0000 1.0000
25.0800 10717.0000 1.0000
25.1000 10784.0000 1.0000
25.1200 10841.0000 1.0000
25.1400 10722.0000 1.0000
25.1600 10868.0000 1.0000
25.1800 10756.0000 1.0000
25.2000 10712.0000 1.0000
25.2200 10951.0000 1.0000
25.2400 10932.0000 1.0000
25.2600 10775.0000 1.0000
25.2800 10880.0000 1.0000
25.3000 10936.0000 1.0000
25.3200 10833.0000 1.0000
25.3400 10890.0000 1.0000
25.3600 10947.0000 1.0000
25.3800 11001.0000 1.0000
25.4000 11017.0000 1.0000
25.4200 11235.0000 1.0000
25.4400 11164.0000 1.0000
25.4600 11163.0000 1.0000
25.4800 11209.0000 1.0000
25.5000 11345.0000 1.0000
25.5200 11910.0000 1.0000
25.5400 12247.0000 1.0000
25.5600 12324.0000 1.0000
25.5800 12565.0000 1.0000
25.6000 12413.0000 1.0000
25.6200 12132.0000 1.0000
25.6400 12319.0000 1.0000
25.6600 12131.0000 1.0000
25.6800 11777.0000 1.0000
25.7000 11553.0000 1.0000
25.7200 11422.0000 1.0000
25.7400 11186.0000 1.0000
25.7600 10989.0000 1.0000
25.7800 11066.0000 1.0000
25.8000 11111.0000 1.0000
25.8200 11041.0000 1.0000
25.8400 10971.0000 1.0000
25.8600 10858.0000 1.0000
25.8800 10862.0000 1.0000
25.9000 10947.0000 1.0000
25.9200 10882.0000 1.0000
25.9400 10720.0000 1.0000
25.9600 10869.0000 1.0000
25.9800 10934.0000 1.0000
26.0000 11056.0000 1.0000
26.0200 10842.0000 1.0000
26.0400 10899.0000 1.0000
26.0600 11011.0000 1.0000
26.0800 10860.0000 1.0000
26.1000 10807.0000 1.0000
26.1200 10727.0000 1.0000
26.1400 10984.0000 1.0000
26.1600 10982.0000 1.0000
26.1800 11079.0000 1.0000
26.2000 10991.0000 1.0000
26.2200 10846.0000 1.0000
26.2400 10929.0000 1.0000
26.2600 11050.0000 1.0000
26.2800 11077.0000 1.0000
26.3000 11249.0000 1.0000
26.3200 11151.0000 1.0000
26.3400 11372.0000 1.0000
26.3600 11498.0000 1.0000
26.3800 11859.0000 1.0000
26.4000 12242.0000 1.0000
26.4200 12326.0000 1.0000
26.4400 12880.0000 1.0000
26.4600 12985.0000 1.0000
26.4800 13073.0000 1.0000
26.5000 13642.0000 1.0000
26.5200 14878.0000 1.0000
26.5400 16489.0000 1.0000
26.5600 18021.0000 1.0000
26.5800 20619.0000 1.0000
26.6000 25784.0000 1.0000
26.6200 33923.0000 1.0000
26.6400 41393.0000 1.0000
26.6600 42549.0000 1.0000
26.6800 40889.0000 1.0000
26.7000 38030.0000 1.0000
26.7200 33560.0000 1.0000
26.7400 29216.0000 1.0000
26.7600 23264.0000 1.0000
26.7800 18316.0000 1.0000
26.8000 15826.0000 1.0000
26.8200 14201.0000 1.0000
26.8400 12856.0000 1.0000
26.8600 12252.0000 1.0000
26.8800 11814.0000 1.0000
26.9000 11401.0000 1.0000
26.9200 11371.0000 1.0000
26.9400 11021.0000 1.0000
26.9600 10891.0000 1.0000
26.9800 11028.0000 1.0000
27.0000 10874.0000 1.0000
27.0200 11002.0000 1.0000
27.0400 10953.0000 1.0000
27.0600 10860.0000 1.0000
27.0800 10733.0000 1.0000
27.1000 10721.0000 1.0000
27.1200 10869.0000 1.0000
27.1400 10823.0000 1.0000
27.1600 10761.0000 1.0000
27.1800 10673.0000 1.0000
27.2000 10682.0000 1.0000
27.2200 10669.0000 1.0000
27.2400 10582.0000 1.0000
27.2600 10735.0000 1.0000
27.2800 10849.0000 1.0000
27.3000 10743.0000 1.0000
27.3200 10592.0000 1.0000
27.3400 10640.0000 1.0000
27.3600 10715.0000 1.0000
27.3800 10829.0000 1.0000
27.4000 10900.0000 1.0000
27.4200 10795.0000 1.0000
27.4400 10873.0000 1.0000
27.4600 10691.0000 1.0000
27.4800 10660.0000 1.0000
27.5000 10725.0000 1.0000
27.5200 10730.0000 1.0000
27.5400 10823.0000 1.0000
27.5600 10728.0000 1.0000
27.5800 10838.0000 1.0000
27.6000 10703.0000 1.0000
27.6200 10641.0000 1.0000
27.6400 10740.0000 1.0000
27.6600 10666.0000 1.0000
27.6800 10751.0000 1.0000
27.7000 10721.0000 1.0000
27.7200 10687.0000 1.0000
27.7400 10686.0000 1.0000
27.7600 10481.0000 1.0000
27.7800 10462.0000 1.0000
27.8000 10664.0000 1.0000
27.8200 10682.0000 1.0000
27.8400 10666.0000 1.0000
27.8600 10575.0000 1.0000
27.8800 10878.0000 1.0000
27.9000 10678.0000 1.0000
27.9200 10786.0000 1.0000
27.9400 10741.0000 1.0000
27.9600 10675.0000 1.0000
27.9800 10715.0000 1.0000
28.0000 10366.0000 1.0000
28.0200 10687.0000 1.0000
28.0400 10503.0000 1.0000
28.0600 10747.0000 1.0000
28.0800 10657.0000 1.0000
28.1000 10588.0000 1.0000
28.1200 10644.0000 1.0000
28.1400 10767.0000 1.0000
28.1600 10751.0000 1.0000
28.1800 10402.0000 1.0000
28.2000 10598.0000 1.0000
28.2200 10663.0000 1.0000
28.2400 10820.0000 1.0000
28.2600 10681.0000 1.0000
28.2800 10588.0000 1.0000
28.3000 10580.0000 1.0000
28.3200 10631.0000 1.0000
28.3400 10487.0000 1.0000
28.3600 10531.0000 1.0000
28.3800 10586.0000 1.0000
28.4000 10650.0000 1.0000
28.4200 10584.0000 1.0000
28.4400 10784.0000 1.0000
28.4600 10537.0000 1.0000
28.4800 10625.0000 1.0000
28.5000 10595.0000 1.0000
28.5200 10589.0000 1.0000
28.5400 10665.0000 1.0000
28.5600 10635.0000 1.0000
28.5800 10596.0000 1.0000
28.6000 10558.0000 1.0000
28.6200 10618.0000 1.0000
28.6400 10336.0000 1.0000
28.6600 10645.0000 1.0000
28.6800 10648.0000 1.0000
28.7000 10641.0000 1.0000
28.7200 10718.0000 1.0000
28.7400 10827.0000 1.0000
28.7600 10636.0000 1.0000
28.7800 10290.0000 1.0000
28.8000 10451.0000 1.0000
28.8200 10484.0000 1.0000
28.8400 10427.0000 1.0000
28.8600 10557.0000 1.0000
28.8800 10613.0000 1.0000
28.9000 10612.0000 1.0000
28.9200 10377.0000 1.0000
28.9400 10474.0000 1.0000
28.9600 10567.0000 1.0000
28.9800 10610.0000 1.0000
29.0000 10527.0000 1.0000
29.0200 10432.0000 1.0000
29.0400 10649.0000 1.0000
29.0600 10709.0000 1.0000
29.0800 10379.0000 1.0000
29.1000 10513.0000 1.0000
29.1200 10500.0000 1.0000
29.1400 10428.0000 1.0000
29.1600 10434.0000 1.0000
29.1800 10526.0000 1.0000
29.2000 10388.0000 1.0000
29.2200 10699.0000 1.0000
29.2400 10537.0000 1.0000
29.2600 10483.0000 1.0000
29.2800 10532.0000 1.0000
29.3000 10445.0000 1.0000
29.3200 10539.0000 1.0000
29.3400 10555.0000 1.0000
29.3600 10556.0000 1.0000
29.3800 10617.0000 1.0000
29.4000 10559.0000 1.0000
29.4200 10520.0000 1.0000
29.4400 10333.0000 1.0000
29.4600 10332.0000 1.0000
29.4800 10404.0000 1.0000
29.5000 10596.0000 1.0000
29.5200 10341.0000 1.0000
29.5400 10706.0000 1.0000
29.5600 10484.0000 1.0000
29.5800 10563.0000 1.0000
29.6000 10557.0000 1.0000
29.6200 10569.0000 1.0000
29.6400 10498.0000 1.0000
29.6600 10509.0000 1.0000
29.6800 10371.0000 1.0000
29.7000 10391.0000 1.0000
29.7200 10438.0000 1.0000
29.7400 10458.0000 1.0000
29.7600 10511.0000 1.0000
29.7800 10538.0000 1.0000
29.8000 10552.0000 1.0000
29.8200 10563.0000 1.0000
29.8400 10496.0000 1.0000
29.8600 10555.0000 1.0000
29.8800 10645.0000 1.0000
29.9000 10604.0000 1.0000
29.9200 10561.0000 1.0000
29.9400 10699.0000 1.0000
29.9600 10621.0000 1.0000
29.9800 10655.0000 1.0000
30.0000 10680.0000 1.0000
30.0200 10746.0000 1.0000
30.0400 10712.0000 1.0000
30.0600 10740.0000 1.0000
30.0800 10909.0000 1.0000
30.1000 10862.0000 1.0000
30.1200 10885.0000 1.0000
30.1400 11035.0000 1.0000
30.1600 10963.0000 1.0000
30.1800 11062.0000 1.0000
30.2000 10898.0000 1.0000
30.2200 10934.0000 1.0000
30.2400 10810.0000 1.0000
30.2600 10710.0000 1.0000
30.2800 10648.0000 1.0000
30.3000 10725.0000 1.0000
30.3200 10592.0000 1.0000
30.3400 10532.0000 1.0000
30.3600 10583.0000 1.0000
30.3800 10465.0000 1.0000
30.4000 10486.0000 1.0000
30.4200 10535.0000 1.0000
30.4400 10489.0000 1.0000
30.4600 10501.0000 1.0000
30.4800 10364.0000 1.0000
30.5000 10577.0000 1.0000
30.5200 10418.0000 1.0000
30.5400 10438.0000 1.0000
30.5600 10594.0000 1.0000
30.5800 10522.0000 1.0000
30.6000 10382.0000 1.0000
30.6200 10475.0000 1.0000
30.6400 10567.0000 1.0000
30.6600 10311.0000 1.0000
30.6800 10656.0000 1.0000
30.7000 10441.0000 1.0000
30.7200 10594.0000 1.0000
30.7400 10586.0000 1.0000
30.7600 10536.0000 1.0000
30.7800 10809.0000 1.0000
30.8000 10426.0000 1.0000
30.8200 10441.0000 1.0000
30.8400 10367.0000 1.0000
30.8600 10296.0000 1.0000
30.8800 10686.0000 1.0000
30.9000 10337.0000 1.0000
30.9200 10483.0000 1.0000
30.9400 10254.0000 1.0000
30.9600 10598.0000 1.0000
30.9800 10544.0000 1.0000
31.0000 10687.0000 1.0000
31.0200 10353.0000 1.0000
31.0400 10460.0000 1.0000
31.0600 10416.0000 1.0000
31.0800 10504.0000 1.0000
31.1000 10375.0000 1.0000
31.1200 10529.0000 1.0000
31.1400 10502.0000 1.0000
31.1600 10371.0000 1.0000
31.1800 10540.0000 1.0000
31.2000 10384.0000 1.0000
31.2200 10205.0000 1.0000
31.2400 10098.0000 1.0000
31.2600 10195.0000 1.0000
31.2800 10380.0000 1.0000
31.3000 10466.0000 1.0000
31.3200 10337.0000 1.0000
31.3400 10398.0000 1.0000
31.3600 10326.0000 1.0000
31.3800 10398.0000 1.0000
31.4000 10576.0000 1.0000
31.4200 10343.0000 1.0000
31.4400 10449.0000 1.0000
31.4600 10358.0000 1.0000
31.4800 10493.0000 1.0000
31.5000 10340.0000 1.0000
31.5200 10443.0000 1.0000
31.5400 10407.0000 1.0000
31.5600 10406.0000 1.0000
31.5800 10271.0000 1.0000
31.6000 10279.0000 1.0000
31.6200 10267.0000 1.0000
31.6400 10387.0000 1.0000
31.6600 10616.0000 1.0000
31.6800 10400.0000 1.0000
31.7000 10460.0000 1.0000
31.7200 10456.0000 1.0000
31.7400 10377.0000 1.0000
31.7600 10179.0000 1.0000
31.7800 10309.0000 1.0000
31.8000 10451.0000 1.0000
31.8200 10365.0000 1.0000
31.8400 10342.0000 1.0000
31.8600 10477.0000 1.0000
31.8800 10149.0000 1.0000
31.9000 10391.0000 1.0000
31.9200 10453.0000 1.0000
31.9400 10397.0000 1.0000
31.9600 10485.0000 1.0000
31.9800 10389.0000 1.0000
32.0000 10430.0000 1.0000
32.0200 10545.0000 1.0000
32.0400 10508.0000 1.0000
32.0600 10531.0000 1.0000
32.0800 10621.0000 1.0000
32.1000 10465.0000 1.0000
32.1200 10456.0000 1.0000
32.1400 10712.0000 1.0000
32.1600 10719.0000 1.0000
32.1800 10467.0000 1.0000
32.2000 10478.0000 1.0000
32.2200 10527.0000 1.0000
32.2400 10469.0000 1.0000
32.2600 10476.0000 1.0000
32.2800 10521.0000 1.0000
32.3000 10322.0000 1.0000
32.3200 10480.0000 1.0000
32.3400 10465.0000 1.0000
32.3600 10448.0000 1.0000
32.3800 10390.0000 1.0000
32.4000 10335.0000 1.0000
32.4200 10281.0000 1.0000
32.4400 10218.0000 1.0000
32.4600 10391.0000 1.0000
32.4800 10481.0000 1.0000
32.5000 10391.0000 1.0000
32.5200 10412.0000 1.0000
32.5400 10317.0000 1.0000
32.5600 10456.0000 1.0000
32.5800 10414.0000 1.0000
32.6000 10409.0000 1.0000
32.6200 10354.0000 1.0000
32.6400 10540.0000 1.0000
32.6600 10511.0000 1.0000
32.6800 10567.0000 1.0000
32.7000 10518.0000 1.0000
32.7200 10503.0000 1.0000
32.7400 10496.0000 1.0000
32.7600 10622.0000 1.0000
32.7800 10665.0000 1.0000
32.8000 10719.0000 1.0000
32.8200 10715.0000 1.0000
32.8400 10771.0000 1.0000
32.8600 10950.0000 1.0000
32.8800 11120.0000 1.0000
32.9000 11105.0000 1.0000
32.9200 11243.0000 1.0000
32.9400 11500.0000 1.0000
32.9600 11958.0000 1.0000
32.9800 12322.0000 1.0000
33.0000 12520.0000 1.0000
33.0200 13077.0000 1.0000
33.0400 13816.0000 1.0000
33.0600 14413.0000 1.0000
33.0800 15713.0000 1.0000
33.1000 17334.0000 1.0000
33.1200 19873.0000 1.0000
33.1400 22932.0000 1.0000
33.1600 25256.0000 1.0000
33.1800 26543.0000 1.0000
33.2000 26314.0000 1.0000
33.2200 24735.0000 1.0000
33.2400 23061.0000 1.0000
33.2600 21209.0000 1.0000
33.2800 19240.0000 1.0000
33.3000 17434.0000 1.0000
33.3200 15542.0000 1.0000
33.3400 13839.0000 1.0000
33.3600 12975.0000 1.0000
33.3800 12194.0000 1.0000
33.4000 11785.0000 1.0000
33.4200 11497.0000 1.0000
33.4400 11307.0000 1.0000
33.4600 11023.0000 1.0000
33.4800 10903.0000 1.0000
33.5000 10704.0000 1.0000
33.5200 10608.0000 1.0000
33.5400 10769.0000 1.0000
33.5600 10520.0000 1.0000
33.5800 10566.0000 1.0000
33.6000 10534.0000 1.0000
33.6200 10567.0000 1.0000
33.6400 10400.0000 1.0000
33.6600 10412.0000 1.0000
33.6800 10318.0000 1.0000
33.7000 10310.0000 1.0000
33.7200 10416.0000 1.0000
33.7400 10356.0000 1.0000
33.7600 10465.0000 1.0000
33.7800 10362.0000 1.0000
33.8000 10338.0000 1.0000
33.8200 10543.0000 1.0000
33.8400 10394.0000 1.0000
33.8600 10587.0000 1.0000
33.8800 10367.0000 1.0000
33.9000 10579.0000 1.0000
33.9200 10486.0000 1.0000
33.9400 10310.0000 1.0000
33.9600 10499.0000 1.0000
33.9800 10276.0000 1.0000
34.0000 10381.0000 1.0000
34.0200 10570.0000 1.0000
34.0400 10370.0000 1.0000
34.0600 10342.0000 1.0000
34.0800 10549.0000 1.0000
34.1000 10314.0000 1.0000
34.1200 10401.0000 1.0000
34.1400 10184.0000 1.0000
34.1600 10310.0000 1.0000
34.1800 10429.0000 1.0000
34.2000 10421.0000 1.0000
34.2200 10288.0000 1.0000
34.2400 10363.0000 1.0000
34.2600 10372.0000 1.0000
34.2800 10309.0000 1.0000
34.3000 10342.0000 1.0000
34.3200 10463.0000 1.0000
34.3400 10397.0000 1.0000
34.3600 10287.0000 1.0000
34.3800 10265.0000 1.0000
34.4000 10394.0000 1.0000
34.4200 10323.0000 1.0000
34.4400 10493.0000 1.0000
34.4600 10372.0000 1.0000
34.4800 10183.0000 1.0000
34.5000 10448.0000 1.0000
34.5200 10366.0000 1.0000
34.5400 10418.0000 1.0000
34.5600 10446.0000 1.0000
34.5800 10369.0000 1.0000
34.6000 10270.0000 1.0000
34.6200 10339.0000 1.0000
34.6400 10425.0000 1.0000
34.6600 10373.0000 1.0000
34.6800 10448.0000 1.0000
34.7000 10283.0000 1.0000
34.7200 10364.0000 1.0000
34.7400 10260.0000 1.0000
34.7600 10298.0000 1.0000
34.7800 10424.0000 1.0000
34.8000 10302.0000 1.0000
34.8200 10404.0000 1.0000
34.8400 10320.0000 1.0000
34.8600 10505.0000 1.0000
34.8800 10442.0000 1.0000
34.9000 10542.0000 1.0000
34.9200 10777.0000 1.0000
34.9400 10590.0000 1.0000
34.9600 10835.0000 1.0000
34.9800 10669.0000 1.0000
35.0000 10874.0000 1.0000
35.0200 11080.0000 1.0000
35.0400 11136.0000 1.0000
35.0600 11386.0000 1.0000
35.0800 11564.0000 1.0000
35.1000 12056.0000 1.0000
35.1200 12610.0000 1.0000
35.1400 13045.0000 1.0000
35.1600 13212.0000 1.0000
35.1800 13288.0000 1.0000
35.2000 13073.0000 1.0000
35.2200 12494.0000 1.0000
35.2400 12468.0000 1.0000
35.2600 12355.0000 1.0000
35.2800 12163.0000 1.0000
35.3000 11699.0000 1.0000
35.3200 11395.0000 1.0000
35.3400 11622.0000 1.0000
35.3600 11558.0000 1.0000
35.3800 11717.0000 1.0000
35.4000 11805.0000 1.0000
35.4200 12289.0000 1.0000
35.4400 12648.0000 1.0000
35.4600 13277.0000 1.0000
35.4800 13682.0000 1.0000
35.5000 14485.0000 1.0000
35.5200 14827.0000 1.0000
35.5400 15416.0000 1.0000
35.5600 16193.0000 1.0000
35.5800 17542.0000 1.0000
35.6000 19089.0000 1.0000
35.6200 21012.0000 1.0000
35.6400 22435.0000 1.0000
35.6600 23003.0000 1.0000
35.6800 21852.0000 1.0000
35.7000 20467.0000 1.0000
35.7200 18965.0000 1.0000
35.7400 18003.0000 1.0000
35.7600 16906.0000 1.0000
35.7800 15526.0000 1.0000
35.8000 13912.0000 1.0000
35.8200 12801.0000 1.0000
35.8400 12240.0000 1.0000
35.8600 11521.0000 1.0000
35.8800 11324.0000 1.0000
35.9000 11024.0000 1.0000
35.9200 10878.0000 1.0000
35.9400 10813.0000 1.0000
35.9600 10592.0000 1.0000
35.9800 10508.0000 1.0000
36.0000 10487.0000 1.0000
36.0200 10516.0000 1.0000
36.0400 10593.0000 1.0000
36.0600 10433.0000 1.0000
36.0800 10471.0000 1.0000
36.1000 10416.0000 1.0000
36.1200 10289.0000 1.0000
36.1400 10414.0000 1.0000
36.1600 10357.0000 1.0000
36.1800 10357.0000 1.0000
36.2000 10303.0000 1.0000
36.2200 10181.0000 1.0000
36.2400 10244.0000 1.0000
36.2600 10209.0000 1.0000
36.2800 10282.0000 1.0000
36.3000 10220.0000 1.0000
36.3200 10299.0000 1.0000
36.3400 10420.0000 1.0000
36.3600 10427.0000 1.0000
36.3800 10479.0000 1.0000
36.4000 10444.0000 1.0000
36.4200 10292.0000 1.0000
36.4400 10520.0000 1.0000
36.4600 10725.0000 1.0000
36.4800 10985.0000 1.0000
36.5000 11102.0000 1.0000
36.5200 11557.0000 1.0000
36.5400 12168.0000 1.0000
36.5600 12557.0000 1.0000
36.5800 12462.0000 1.0000
36.6000 11686.0000 1.0000
36.6200 11598.0000 1.0000
36.6400 11565.0000 1.0000
36.6600 11372.0000 1.0000
36.6800 11189.0000 1.0000
36.7000 10937.0000 1.0000
36.7200 10372.0000 1.0000
36.7400 10364.0000 1.0000
36.7600 10339.0000 1.0000
36.7800 10418.0000 1.0000
36.8000 10422.0000 1.0000
36.8200 10517.0000 1.0000
36.8400 10371.0000 1.0000
36.8600 10249.0000 1.0000
36.8800 10398.0000 1.0000
36.9000 10297.0000 1.0000
36.9200 10154.0000 1.0000
36.9400 10252.0000 1.0000
36.9600 9923.0000 1.0000
36.9800 10173.0000 1.0000
37.0000 10051.0000 1.0000
37.0200 10128.0000 1.0000
37.0400 10303.0000 1.0000
37.0600 10236.0000 1.0000
37.0800 9978.0000 1.0000
37.1000 10195.0000 1.0000
37.1200 10421.0000 1.0000
37.1400 10244.0000 1.0000
37.1600 10224.0000 1.0000
37.1800 10062.0000 1.0000
37.2000 10247.0000 1.0000
37.2200 10311.0000 1.0000
37.2400 10034.0000 1.0000
37.2600 10332.0000 1.0000
37.2800 10222.0000 1.0000
37.3000 10199.0000 1.0000
37.3200 10092.0000 1.0000
37.3400 10228.0000 1.0000
37.3600 10084.0000 1.0000
37.3800 9973.0000 1.0000
37.4000 10210.0000 1.0000
37.4200 10075.0000 1.0000
37.4400 10103.0000 1.0000
37.4600 10168.0000 1.0000
37.4800 10252.0000 1.0000
37.5000 10296.0000 1.0000
37.5200 10458.0000 1.0000
37.5400 10401.0000 1.0000
37.5600 10291.0000 1.0000
37.5800 10235.0000 1.0000
37.6000 10216.0000 1.0000
37.6200 10433.0000 1.0000
37.6400 10387.0000 1.0000
37.6600 10292.0000 1.0000
37.6800 10489.0000 1.0000
37.7000 10526.0000 1.0000
37.7200 10674.0000 1.0000
37.7400 10870.0000 1.0000
37.7600 11071.0000 1.0000
37.7800 11212.0000 1.0000
37.8000 11529.0000 1.0000
37.8200 11342.0000 1.0000
37.8400 11164.0000 1.0000
37.8600 11083.0000 1.0000
37.8800 10925.0000 1.0000
37.9000 10720.0000 1.0000
37.9200 10720.0000 1.0000
37.9400 10578.0000 1.0000
37.9600 10498.0000 1.0000
37.9800 10642.0000 1.0000
38.0000 10447.0000 1.0000
38.0200 10340.0000 1.0000
38.0400 10233.0000 1.0000
38.0600 10257.0000 1.0000
38.0800 10450.0000 1.0000
38.1000 10280.0000 1.0000
38.1200 10213.0000 1.0000
38.1400 10227.0000 1.0000
38.1600 10304.0000 1.0000
38.1800 10317.0000 1.0000
38.2000 10275.0000 1.0000
38.2200 10167.0000 1.0000
38.2400 10346.0000 1.0000
38.2600 10362.0000 1.0000
38.2800 10302.0000 1.0000
38.3000 10244.0000 1.0000
38.3200 10034.0000 1.0000
38.3400 10180.0000 1.0000
38.3600 10159.0000 1.0000
38.3800 10152.0000 1.0000
38.4000 10215.0000 1.0000
38.4200 10355.0000 1.0000
38.4400 10127.0000 1.0000
38.4600 10031.0000 1.0000
38.4800 10378.0000 1.0000
38.5000 10213.0000 1.0000
38.5200 10019.0000 1.0000
38.5400 10104.0000 1.0000
38.5600 10104.0000 1.0000
38.5800 9976.0000 1.0000
38.6000 9997.0000 1.0000
38.6200 10035.0000 1.0000
38.6400 10152.0000 1.0000
38.6600 10141.0000 1.0000
38.6800 10224.0000 1.0000
38.7000 10283.0000 1.0000
38.7200 10304.0000 1.0000
38.7400 10098.0000 1.0000
38.7600 10272.0000 1.0000
38.7800 10104.0000 1.0000
38.8000 9810.0000 1.0000
38.8200 10104.0000 1.0000
38.8400 10178.0000 1.0000
38.8600 10304.0000 1.0000
38.8800 10168.0000 1.0000
38.9000 10228.0000 1.0000
38.9200 10067.0000 1.0000
38.9400 10033.0000 1.0000
38.9600 10189.0000 1.0000
38.9800 9987.0000 1.0000
39.0000 10064.0000 1.0000
39.0200 10329.0000 1.0000
39.0400 10344.0000 1.0000
39.0600 10081.0000 1.0000
39.0800 10185.0000 1.0000
39.1000 10160.0000 1.0000
39.1200 10240.0000 1.0000
39.1400 10279.0000 1.0000
39.1600 10253.0000 1.0000
39.1800 10239.0000 1.0000
39.2000 10263.0000 1.0000
39.2200 10265.0000 1.0000
39.2400 10314.0000 1.0000
39.2600 10415.0000 1.0000
39.2800 10324.0000 1.0000
39.3000 10590.0000 1.0000
39.3200 10461.0000 1.0000
39.3400 10494.0000 1.0000
39.3600 10802.0000 1.0000
39.3800 10789.0000 1.0000
39.4000 10793.0000 1.0000
39.4200 10778.0000 1.0000
39.4400 11619.0000 1.0000
39.4600 12274.0000 1.0000
39.4800 12439.0000 1.0000
39.5000 12089.0000 1.0000
39.5200 11872.0000 1.0000
39.5400 11371.0000 1.0000
39.5600 11225.0000 1.0000
39.5800 11254.0000 1.0000
39.6000 10953.0000 1.0000
39.6200 10925.0000 1.0000
39.6400 10660.0000 1.0000
39.6600 10389.0000 1.0000
39.6800 10336.0000 1.0000
39.7000 10189.0000 1.0000
39.7200 10232.0000 1.0000
39.7400 10139.0000 1.0000
39.7600 10110.0000 1.0000
39.7800 10173.0000 1.0000
39.8000 10139.0000 1.0000
39.8200 10239.0000 1.0000
39.8400 10115.0000 1.0000
39.8600 10068.0000 1.0000
39.8800 10132.0000 1.0000
39.9000 10209.0000 1.0000
39.9200 9978.0000 1.0000
39.9400 10253.0000 1.0000
39.9600 10170.0000 1.0000
39.9800 10150.0000 1.0000
40.0000 10200.0000 1.0000
40.0200 10118.0000 1.0000
40.0400 10110.0000 1.0000
40.0600 10046.0000 1.0000
40.0800 10260.0000 1.0000
40.1000 10214.0000 1.0000
40.1200 10277.0000 1.0000
40.1400 10214.0000 1.0000
40.1600 10133.0000 1.0000
40.1800 10237.0000 1.0000
40.2000 10341.0000 1.0000
40.2200 10439.0000 1.0000
40.2400 10471.0000 1.0000
40.2600 10591.0000 1.0000
40.2800 10968.0000 1.0000
40.3000 11166.0000 1.0000
40.3200 11445.0000 1.0000
40.3400 11302.0000 1.0000
40.3600 10684.0000 1.0000
40.3800 10751.0000 1.0000
40.4000 10547.0000 1.0000
40.4200 10718.0000 1.0000
40.4400 10779.0000 1.0000
40.4600 10513.0000 1.0000
40.4800 10418.0000 1.0000
40.5000 10387.0000 1.0000
40.5200 10460.0000 1.0000
40.5400 10247.0000 1.0000
40.5600 10265.0000 1.0000
40.5800 10387.0000 1.0000
40.6000 10263.0000 1.0000
40.6200 10563.0000 1.0000
40.6400 10483.0000 1.0000
40.6600 10282.0000 1.0000
40.6800 10501.0000 1.0000
40.7000 10607.0000 1.0000
40.7200 10569.0000 1.0000
40.7400 10802.0000 1.0000
40.7600 11057.0000 1.0000
40.7800 11152.0000 1.0000
40.8000 11483.0000 1.0000
40.8200 12164.0000 1.0000
40.8400 12842.0000 1.0000
40.8600 13651.0000 1.0000
40.8800 13655.0000 1.0000
40.9000 13629.0000 1.0000
40.9200 13107.0000 1.0000
40.9400 12689.0000 1.0000
40.9600 12682.0000 1.0000
40.9800 12468.0000 1.0000
41.0000 12290.0000 1.0000
41.0200 11765.0000 1.0000
41.0400 11368.0000 1.0000
41.0600 11031.0000 1.0000
41.0800 10701.0000 1.0000
41.1000 10515.0000 1.0000
41.1200 10367.0000 1.0000
41.1400 10394.0000 1.0000
41.1600 10382.0000 1.0000
41.1800 10315.0000 1.0000
41.2000 10073.0000 1.0000
41.2200 10117.0000 1.0000
41.2400 10068.0000 1.0000
41.2600 10031.0000 1.0000
41.2800 9946.0000 1.0000
41.3000 10195.0000 1.0000
41.3200 10097.0000 1.0000
41.3400 10126.0000 1.0000
41.3600 10211.0000 1.0000
41.3800 10135.0000 1.0000
41.4000 10408.0000 1.0000
41.4200 10167.0000 1.0000
41.4400 10130.0000 1.0000
41.4600 10072.0000 1.0000
41.4800 10248.0000 1.0000
41.5000 10133.0000 1.0000
41.5200 10269.0000 1.0000
41.5400 10102.0000 1.0000
41.5600 10249.0000 1.0000
41.5800 10149.0000 1.0000
41.6000 10355.0000 1.0000
41.6200 10062.0000 1.0000
41.6400 10155.0000 1.0000
41.6600 10223.0000 1.0000
41.6800 10230.0000 1.0000
41.7000 10201.0000 1.0000
41.7200 10177.0000 1.0000
41.7400 10151.0000 1.0000
41.7600 10281.0000 1.0000
41.7800 10300.0000 1.0000
41.8000 10106.0000 1.0000
41.8200 10008.0000 1.0000
41.8400 10115.0000 1.0000
41.8600 10122.0000 1.0000
41.8800 10404.0000 1.0000
41.9000 10054.0000 1.0000
41.9200 10226.0000 1.0000
41.9400 10124.0000 1.0000
41.9600 10154.0000 1.0000
41.9800 9902.0000 1.0000
42.0000 10009.0000 1.0000
42.0200 10187.0000 1.0000
42.0400 10255.0000 1.0000
42.0600 10210.0000 1.0000
42.0800 10165.0000 1.0000
42.1000 10119.0000 1.0000
42.1200 10041.0000 1.0000
42.1400 10181.0000 1.0000
42.1600 10065.0000 1.0000
42.1800 10231.0000 1.0000
42.2000 10210.0000 1.0000
42.2200 10185.0000 1.0000
42.2400 10202.0000 1.0000
42.2600 10378.0000 1.0000
42.2800 10330.0000 1.0000
42.3000 10377.0000 1.0000
42.3200 10373.0000 1.0000
42.3400 10461.0000 1.0000
42.3600 10684.0000 1.0000
42.3800 10841.0000 1.0000
42.4000 11310.0000 1.0000
42.4200 11710.0000 1.0000
42.4400 12004.0000 1.0000
42.4600 12454.0000 1.0000
42.4800 13025.0000 1.0000
42.5000 12740.0000 1.0000
42.5200 12050.0000 1.0000
42.5400 11468.0000 1.0000
42.5600 11409.0000 1.0000
42.5800 11471.0000 1.0000
42.6000 11494.0000 1.0000
42.6200 11140.0000 1.0000
42.6400 10681.0000 1.0000
42.6600 10532.0000 1.0000
42.6800 10208.0000 1.0000
42.7000 10199.0000 1.0000
42.7200 10371.0000 1.0000
42.7400 10239.0000 1.0000
42.7600 10229.0000 1.0000
42.7800 10272.0000 1.0000
42.8000 10343.0000 1.0000
42.8200 10079.0000 1.0000
42.8400 10132.0000 1.0000
42.8600 10293.0000 1.0000
42.8800 10203.0000 1.0000
42.9000 10114.0000 1.0000
42.9200 10237.0000 1.0000
42.9400 10092.0000 1.0000
42.9600 10293.0000 1.0000
42.9800 10139.0000 1.0000
43.0000 10270.0000 1.0000
43.0200 10423.0000 1.0000
43.0400 10315.0000 1.0000
43.0600 10414.0000 1.0000
43.0800 10602.0000 1.0000
43.1000 10766.0000 1.0000
43.1200 10708.0000 1.0000
43.1400 10807.0000 1.0000
43.1600 11004.0000 1.0000
43.1800 11000.0000 1.0000
43.2000 11091.0000 1.0000
43.2200 11223.0000 1.0000
43.2400 11313.0000 1.0000
43.2600 11579.0000 1.0000
43.2800 11796.0000 1.0000
43.3000 12371.0000 1.0000
43.3200 12549.0000 1.0000
43.3400 13254.0000 1.0000
43.3600 13322.0000 1.0000
43.3800 13194.0000 1.0000
43.4000 12953.0000 1.0000
43.4200 12454.0000 1.0000
43.4400 12370.0000 1.0000
43.4600 12466.0000 1.0000
43.4800 12121.0000 1.0000
43.5000 12150.0000 1.0000
43.5200 11728.0000 1.0000
43.5400 11419.0000 1.0000
43.5600 11021.0000 1.0000
43.5800 10899.0000 1.0000
43.6000 10762.0000 1.0000
43.6200 10581.0000 1.0000
43.6400 10456.0000 1.0000
43.6600 10433.0000 1.0000
43.6800 10250.0000 1.0000
43.7000 10262.0000 1.0000
43.7200 10368.0000 1.0000
43.7400 10160.0000 1.0000
43.7600 10262.0000 1.0000
43.7800 10229.0000 1.0000
43.8000 10363.0000 1.0000
43.8200 10258.0000 1.0000
43.8400 10092.0000 1.0000
43.8600 10172.0000 1.0000
43.8800 10102.0000 1.0000
43.9000 10024.0000 1.0000
43.9200 10362.0000 1.0000
43.9400 10182.0000 1.0000
43.9600 10227.0000 1.0000
43.9800 9993.0000 1.0000
44.0000 10091.0000 1.0000
44.0200 10086.0000 1.0000
44.0400 10091.0000 1.0000
44.0600 10006.0000 1.0000
44.0800 9938.0000 1.0000
44.1000 9976.0000 1.0000
44.1200 10032.0000 1.0000
44.1400 10122.0000 1.0000
44.1600 10198.0000 1.0000
44.1800 10196.0000 1.0000
44.2000 10063.0000 1.0000
44.2200 10095.0000 1.0000
44.2400 10035.0000 1.0000
44.2600 10171.0000 1.0000
44.2800 9809.0000 1.0000
44.3000 9960.0000 1.0000
44.3200 10041.0000 1.0000
44.3400 10032.0000 1.0000
44.3600 10069.0000 1.0000
44.3800 10024.0000 1.0000
44.4000 10210.0000 1.0000
44.4200 10257.0000 1.0000
44.4400 9986.0000 1.0000
44.4600 10109.0000 1.0000
44.4800 10178.0000 1.0000
44.5000 10254.0000 1.0000
44.5200 9851.0000 1.0000
44.5400 10154.0000 1.0000
44.5600 10037.0000 1.0000
44.5800 10164.0000 1.0000
44.6000 10118.0000 1.0000
44.6200 10067.0000 1.0000
44.6400 10054.0000 1.0000
44.6600 9976.0000 1.0000
44.6800 9937.0000 1.0000
44.7000 9957.0000 1.0000
44.7200 10107.0000 1.0000
44.7400 10107.0000 1.0000
44.7600 10323.0000 1.0000
44.7800 10057.0000 1.0000
44.8000 9979.0000 1.0000
44.8200 10125.0000 1.0000
44.8400 10157.0000 1.0000
44.8600 10085.0000 1.0000
44.8800 9907.0000 1.0000
44.9000 9839.0000 1.0000
44.9200 9886.0000 1.0000
44.9400 10049.0000 1.0000
44.9600 9948.0000 1.0000
44.9800 10126.0000 1.0000
45.0000 10172.0000 1.0000
45.0200 10021.0000 1.0000
45.0400 10020.0000 1.0000
45.0600 10110.0000 1.0000
45.0800 10140.0000 1.0000
45.1000 10163.0000 1.0000
45.1200 10182.0000 1.0000
45.1400 10114.0000 1.0000
45.1600 10169.0000 1.0000
45.1800 10030.0000 1.0000
45.2000 10143.0000 1.0000
45.2200 10051.0000 1.0000
45.2400 9957.0000 1.0000
45.2600 10101.0000 1.0000
45.2800 10097.0000 1.0000
45.3000 9852.0000 1.0000
45.3200 9995.0000 1.0000
45.3400 9919.0000 1.0000
45.3600 9989.0000 1.0000
45.3800 10083.0000 1.0000
45.4000 10087.0000 1.0000
45.4200 9980.0000 1.0000
45.4400 10111.0000 1.0000
45.4600 10079.0000 1.0000
45.4800 9927.0000 1.0000
45.5000 10075.0000 1.0000
45.5200 10162.0000 1.0000
45.5400 10113.0000 1.0000
45.5600 10009.0000 1.0000
45.5800 9871.0000 1.0000
45.6000 10000.0000 1.0000
45.6200 10005.0000 1.0000
45.6400 9931.0000 1.0000
45.6600 10114.0000 1.0000
45.6800 10194.0000 1.0000
45.7000 10108.0000 1.0000
45.7200 10348.0000 1.0000
45.7400 10422.0000 1.0000
45.7600 10482.0000 1.0000
45.7800 11181.0000 1.0000
45.8000 11252.0000 1.0000
45.8200 11337.0000 1.0000
45.8400 10988.0000 1.0000
45.8600 10750.0000 1.0000
45.8800 10663.0000 1.0000
45.9000 10635.0000 1.0000
45.9200 10723.0000 1.0000
45.9400 10585.0000 1.0000
45.9600 10625.0000 1.0000
45.9800 10483.0000 1.0000
46.0000 10232.0000 1.0000
46.0200 10139.0000 1.0000
46.0400 10378.0000 1.0000
46.0600 10045.0000 1.0000
46.0800 10196.0000 1.0000
46.1000 10166.0000 1.0000
46.1200 10032.0000 1.0000
46.1400 10189.0000 1.0000
46.1600 10076.0000 1.0000
46.1800 9962.0000 1.0000
46.2000 10152.0000 1.0000
46.2200 9922.0000 1.0000
46.2400 9859.0000 1.0000
46.2600 10118.0000 1.0000
46.2800 10191.0000 1.0000
46.3000 10008.0000 1.0000
46.3200 10044.0000 1.0000
46.3400 10255.0000 1.0000
46.3600 9918.0000 1.0000
46.3800 9935.0000 1.0000
46.4000 9999.0000 1.0000
46.4200 10064.0000 1.0000
46.4400 10086.0000 1.0000
46.4600 9980.0000 1.0000
46.4800 10207.0000 1.0000
46.5000 9832.0000 1.0000
46.5200 10176.0000 1.0000
46.5400 9972.0000 1.0000
46.5600 10093.0000 1.0000
46.5800 10039.0000 1.0000
46.6000 10032.0000 1.0000
46.6200 10029.0000 1.0000
46.6400 9971.0000 1.0000
46.6600 10081.0000 1.0000
46.6800 10053.0000 1.0000
46.7000 10179.0000 1.0000
46.7200 10085.0000 1.0000
46.7400 10090.0000 1.0000
46.7600 9872.0000 1.0000
46.7800 10195.0000 1.0000
46.8000 10050.0000 1.0000
46.8200 9984.0000 1.0000
46.8400 10134.0000 1.0000
46.8600 10063.0000 1.0000
46.8800 10166.0000 1.0000
46.9000 10046.0000 1.0000
46.9200 10025.0000 1.0000
46.9400 10060.0000 1.0000
46.9600 10123.0000 1.0000
46.9800 9953.0000 1.0000
47.0000 10108.0000 1.0000
47.0200 9876.0000 1.0000
47.0400 10138.0000 1.0000
47.0600 9774.0000 1.0000
47.0800 10042.0000 1.0000
47.1000 9870.0000 1.0000
47.1200 10130.0000 1.0000
47.1400 10036.0000 1.0000
47.1600 10168.0000 1.0000
47.1800 10057.0000 1.0000
47.2000 10040.0000 1.0000
47.2200 10004.0000 1.0000
47.2400 10174.0000 1.0000
47.2600 10017.0000 1.0000
47.2800 10036.0000 1.0000
47.3000 10024.0000 1.0000
47.3200 10027.0000 1.0000
47.3400 10086.0000 1.0000
47.3600 10078.0000 1.0000
47.3800 9926.0000 1.0000
47.4000 9929.0000 1.0000
47.4200 9966.0000 1.0000
47.4400 10014.0000 1.0000
47.4600 10215.0000 1.0000
47.4800 9812.0000 1.0000
47.5000 10030.0000 1.0000
47.5200 9948.0000 1.0000
47.5400 9962.0000 1.0000
47.5600 9928.0000 1.0000
47.5800 10118.0000 1.0000
47.6000 9890.0000 1.0000
47.6200 10001.0000 1.0000
47.6400 10023.0000 1.0000
47.6600 10080.0000 1.0000
47.6800 10208.0000 1.0000
47.7000 10001.0000 1.0000
47.7200 9979.0000 1.0000
47.7400 10099.0000 1.0000
47.7600 9887.0000 1.0000
47.7800 9875.0000 1.0000
47.8000 10129.0000 1.0000
47.8200 9864.0000 1.0000
47.8400 10096.0000 1.0000
47.8600 10022.0000 1.0000
47.8800 10002.0000 1.0000
47.9000 10186.0000 1.0000
47.9200 10088.0000 1.0000
47.9400 10147.0000 1.0000
47.9600 10054.0000 1.0000
47.9800 9918.0000 1.0000
48.0000 10120.0000 1.0000
48.0200 10019.0000 1.0000
48.0400 10068.0000 1.0000
48.0600 10101.0000 1.0000
48.0800 10028.0000 1.0000
48.1000 10118.0000 1.0000
48.1200 9944.0000 1.0000
48.1400 9995.0000 1.0000
48.1600 10068.0000 1.0000
48.1800 9939.0000 1.0000
48.2000 9941.0000 1.0000
48.2200 10057.0000 1.0000
48.2400 10084.0000 1.0000
48.2600 10054.0000 1.0000
48.2800 10173.0000 1.0000
48.3000 10134.0000 1.0000
48.3200 10009.0000 1.0000
48.3400 10115.0000 1.0000
48.3600 9967.0000 1.0000
48.3800 10018.0000 1.0000
48.4000 10201.0000 1.0000
48.4200 10140.0000 1.0000
48.4400 9974.0000 1.0000
48.4600 10196.0000 1.0000
48.4800 10013.0000 1.0000
48.5000 10138.0000 1.0000
48.5200 10032.0000 1.0000
48.5400 10063.0000 1.0000
48.5600 9991.0000 1.0000
48.5800 10147.0000 1.0000
48.6000 9975.0000 1.0000
48.6200 10048.0000 1.0000
48.6400 10043.0000 1.0000
48.6600 10063.0000 1.0000
48.6800 9988.0000 1.0000
48.7000 10130.0000 1.0000
48.7200 10148.0000 1.0000
48.7400 10192.0000 1.0000
48.7600 10044.0000 1.0000
48.7800 10100.0000 1.0000
48.8000 10008.0000 1.0000
48.8200 10127.0000 1.0000
48.8400 10014.0000 1.0000
48.8600 9922.0000 1.0000
48.8800 9958.0000 1.0000
48.9000 9982.0000 1.0000
48.9200 10212.0000 1.0000
48.9400 10033.0000 1.0000
48.9600 10011.0000 1.0000
48.9800 10110.0000 1.0000
49.0000 10121.0000 1.0000
49.0200 10145.0000 1.0000
49.0400 10112.0000 1.0000
49.0600 10151.0000 1.0000
49.0800 10213.0000 1.0000
49.1000 10122.0000 1.0000
49.1200 10057.0000 1.0000
49.1400 10256.0000 1.0000
49.1600 10221.0000 1.0000
49.1800 10343.0000 1.0000
49.2000 10236.0000 1.0000
49.2200 10398.0000 1.0000
49.2400 10649.0000 1.0000
49.2600 10715.0000 1.0000
49.2800 10879.0000 1.0000
49.3000 10724.0000 1.0000
49.3200 10911.0000 1.0000
49.3400 11079.0000 1.0000
49.3600 11587.0000 1.0000
49.3800 12129.0000 1.0000
49.4000 12476.0000 1.0000
49.4200 13495.0000 1.0000
49.4400 14447.0000 1.0000
49.4600 15325.0000 1.0000
49.4800 15820.0000 1.0000
49.5000 15791.0000 1.0000
49.5200 14951.0000 1.0000
49.5400 14181.0000 1.0000
49.5600 13654.0000 1.0000
49.5800 13618.0000 1.0000
49.6000 13646.0000 1.0000
49.6200 13369.0000 1.0000
49.6400 12923.0000 1.0000
49.6600 12293.0000 1.0000
49.6800 11584.0000 1.0000
49.7000 11326.0000 1.0000
49.7200 10821.0000 1.0000
49.7400 10804.0000 1.0000
49.7600 10609.0000 1.0000
49.7800 10363.0000 1.0000
49.8000 10428.0000 1.0000
49.8200 10376.0000 1.0000
49.8400 10432.0000 1.0000
49.8600 10348.0000 1.0000
49.8800 10327.0000 1.0000
49.9000 10315.0000 1.0000
49.9200 10318.0000 1.0000
49.9400 10568.0000 1.0000
49.9600 10485.0000 1.0000
49.9800 10528.0000 1.0000
50.0000 10467.0000 1.0000
50.0200 10511.0000 1.0000
50.0400 10775.0000 1.0000
50.0600 11097.0000 1.0000
50.0800 11661.0000 1.0000
50.1000 13539.0000 1.0000
50.1200 16562.0000 1.0000
50.1400 18186.0000 1.0000
50.1600 16351.0000 1.0000
50.1800 14073.0000 1.0000
50.2000 12436.0000 1.0000
50.2200 12155.0000 1.0000
50.2400 12678.0000 1.0000
50.2600 14085.0000 1.0000
50.2800 14321.0000 1.0000
50.3000 12949.0000 1.0000
50.3200 11832.0000 1.0000
50.3400 10984.0000 1.0000
50.3600 10575.0000 1.0000
50.3800 10440.0000 1.0000
50.4000 10338.0000 1.0000
50.4200 10196.0000 1.0000
50.4400 10232.0000 1.0000
50.4600 10222.0000 1.0000
50.4800 9976.0000 1.0000
50.5000 10119.0000 1.0000
50.5200 10046.0000 1.0000
50.5400 10083.0000 1.0000
50.5600 10091.0000 1.0000
50.5800 10066.0000 1.0000
50.6000 10023.0000 1.0000
50.6200 10224.0000 1.0000
50.6400 10150.0000 1.0000
50.6600 10068.0000 1.0000
50.6800 10231.0000 1.0000
50.7000 10037.0000 1.0000
50.7200 9981.0000 1.0000
50.7400 9936.0000 1.0000
50.7600 10086.0000 1.0000
50.7800 10117.0000 1.0000
50.8000 9939.0000 1.0000
50.8200 9957.0000 1.0000
50.8400 10150.0000 1.0000
50.8600 10178.0000 1.0000
50.8800 10112.0000 1.0000
50.9000 10056.0000 1.0000
50.9200 9932.0000 1.0000
50.9400 10065.0000 1.0000
50.9600 9961.0000 1.0000
50.9800 9986.0000 1.0000
51.0000 10005.0000 1.0000
51.0200 9997.0000 1.0000
51.0400 10083.0000 1.0000
51.0600 10047.0000 1.0000
51.0800 9941.0000 1.0000
51.1000 10051.0000 1.0000
51.1200 10031.0000 1.0000
51.1400 10241.0000 1.0000
51.1600 9871.0000 1.0000
51.1800 9973.0000 1.0000
51.2000 10016.0000 1.0000
51.2200 9912.0000 1.0000
51.2400 9860.0000 1.0000
51.2600 9831.0000 1.0000
51.2800 10067.0000 1.0000
51.3000 9971.0000 1.0000
51.3200 10041.0000 1.0000
51.3400 10074.0000 1.0000
51.3600 9955.0000 1.0000
51.3800 10003.0000 1.0000
51.4000 10007.0000 1.0000
51.4200 10071.0000 1.0000
51.4400 9888.0000 1.0000
51.4600 9965.0000 1.0000
51.4800 10168.0000 1.0000
51.5000 10079.0000 1.0000
51.5200 10181.0000 1.0000
51.5400 9990.0000 1.0000
51.5600 9955.0000 1.0000
51.5800 10161.0000 1.0000
51.6000 10078.0000 1.0000
51.6200 9786.0000 1.0000
51.6400 10062.0000 1.0000
51.6600 10245.0000 1.0000
51.6800 9960.0000 1.0000
51.7000 10069.0000 1.0000
51.7200 9933.0000 1.0000
51.7400 9999.0000 1.0000
51.7600 9882.0000 1.0000
51.7800 10168.0000 1.0000
51.8000 10060.0000 1.0000
51.8200 10047.0000 1.0000
51.8400 10015.0000 1.0000
51.8600 9941.0000 1.0000
51.8800 9797.0000 1.0000
51.9000 10071.0000 1.0000
51.9200 9954.0000 1.0000
51.9400 10020.0000 1.0000
51.9600 9976.0000 1.0000
51.9800 10060.0000 1.0000
52.0000 10060.0000 1.0000
52.0200 10127.0000 1.0000
52.0400 10041.0000 1.0000
52.0600 10141.0000 1.0000
52.0800 10027.0000 1.0000
52.1000 10186.0000 1.0000
52.1200 10188.0000 1.0000
52.1400 10124.0000 1.0000
52.1600 10197.0000 1.0000
52.1800 10230.0000 1.0000
52.2000 10106.0000 1.0000
52.2200 9947.0000 1.0000
52.2400 10105.0000 1.0000
52.2600 10299.0000 1.0000
52.2800 10177.0000 1.0000
52.3000 10118.0000 1.0000
52.3200 10307.0000 1.0000
52.3400 10257.0000 1.0000
52.3600 10353.0000 1.0000
52.3800 10165.0000 1.0000
52.4000 10487.0000 1.0000
52.4200 10263.0000 1.0000
52.4400 10742.0000 1.0000
52.4600 10498.0000 1.0000
52.4800 10769.0000 1.0000
52.5000 11010.0000 1.0000
52.5200 11239.0000 1.0000
52.5400 11383.0000 1.0000
52.5600 11462.0000 1.0000
52.5800 11418.0000 1.0000
52.6000 11312.0000 1.0000
52.6200 10923.0000 1.0000
52.6400 10919.0000 1.0000
52.6600 10782.0000 1.0000
52.6800 10944.0000 1.0000
52.7000 10947.0000 1.0000
52.7200 10648.0000 1.0000
52.7400 10735.0000 1.0000
52.7600 10609.0000 1.0000
52.7800 10273.0000 1.0000
52.8000 10332.0000 1.0000
52.8200 10153.0000 1.0000
52.8400 10304.0000 1.0000
52.8600 10083.0000 1.0000
52.8800 9969.0000 1.0000
52.9000 10260.0000 1.0000
52.9200 10150.0000 1.0000
52.9400 10185.0000 1.0000
52.9600 10026.0000 1.0000
52.9800 9951.0000 1.0000
53.0000 10089.0000 1.0000
53.0200 10078.0000 1.0000
53.0400 10106.0000 1.0000
53.0600 10101.0000 1.0000
53.0800 10087.0000 1.0000
53.1000 9909.0000 1.0000
53.1200 9925.0000 1.0000
53.1400 9997.0000 1.0000
53.1600 9966.0000 1.0000
53.1800 9838.0000 1.0000
53.2000 10159.0000 1.0000
53.2200 10019.0000 1.0000
53.2400 10070.0000 1.0000
53.2600 10011.0000 1.0000
53.2800 10099.0000 1.0000
53.3000 10021.0000 1.0000
53.3200 9898.0000 1.0000
53.3400 10068.0000 1.0000
53.3600 9883.0000 1.0000
53.3800 10095.0000 1.0000
53.4000 10160.0000 1.0000
53.4200 10274.0000 1.0000
53.4400 10107.0000 1.0000
53.4600 10115.0000 1.0000
53.4800 10167.0000 1.0000
53.5000 10314.0000 1.0000
53.5200 10478.0000 1.0000
53.5400 10149.0000 1.0000
53.5600 10225.0000 1.0000
53.5800 10155.0000 1.0000
53.6000 10298.0000 1.0000
53.6200 10429.0000 1.0000
53.6400 10324.0000 1.0000
53.6600 10441.0000 1.0000
53.6800 10446.0000 1.0000
53.7000 10370.0000 1.0000
53.7200 10474.0000 1.0000
53.7400 10365.0000 1.0000
53.7600 10449.0000 1.0000
53.7800 10399.0000 1.0000
53.8000 10565.0000 1.0000
53.8200 10602.0000 1.0000
53.8400 10636.0000 1.0000
53.8600 10757.0000 1.0000
53.8800 10843.0000 1.0000
53.9000 10925.0000 1.0000
53.9200 11195.0000 1.0000
53.9400 11570.0000 1.0000
53.9600 11671.0000 1.0000
53.9800 12040.0000 1.0000
54.0000 12965.0000 1.0000
54.0200 13739.0000 1.0000
54.0400 15099.0000 1.0000
54.0600 16197.0000 1.0000
54.0800 17026.0000 1.0000
54.1000 16889.0000 1.0000
54.1200 16024.0000 1.0000
54.1400 15131.0000 1.0000
54.1600 14521.0000 1.0000
54.1800 14353.0000 1.0000
54.2000 14125.0000 1.0000
54.2200 14240.0000 1.0000
54.2400 14078.0000 1.0000
54.2600 13481.0000 1.0000
54.2800 12750.0000 1.0000
54.3000 12044.0000 1.0000
54.3200 11521.0000 1.0000
54.3400 10956.0000 1.0000
54.3600 10797.0000 1.0000
54.3800 10695.0000 1.0000
54.4000 10485.0000 1.0000
54.4200 10374.0000 1.0000
54.4400 10379.0000 1.0000
54.4600 10392.0000 1.0000
54.4800 10274.0000 1.0000
54.5000 10256.0000 1.0000
54.5200 10124.0000 1.0000
54.5400 10091.0000 1.0000
54.5600 10132.0000 1.0000
54.5800 10130.0000 1.0000
54.6000 10370.0000 1.0000
54.6200 10178.0000 1.0000
54.6400 10249.0000 1.0000
54.6600 10160.0000 1.0000
54.6800 10053.0000 1.0000
54.7000 10077.0000 1.0000
54.7200 10119.0000 1.0000
54.7400 10077.0000 1.0000
54.7600 10185.0000 1.0000
54.7800 10211.0000 1.0000
54.8000 10288.0000 1.0000
54.8200 10538.0000 1.0000
54.8400 10678.0000 1.0000
54.8600 10961.0000 1.0000
54.8800 11048.0000 1.0000
54.9000 11012.0000 1.0000
54.9200 11066.0000 1.0000
54.9400 10729.0000 1.0000
54.9600 10514.0000 1.0000
54.9800 10550.0000 1.0000
55.0000 10485.0000 1.0000
55.0200 10604.0000 1.0000
55.0400 10870.0000 1.0000
55.0600 10660.0000 1.0000
55.0800 10289.0000 1.0000
55.1000 10413.0000 1.0000
55.1200 10226.0000 1.0000
55.1400 10244.0000 1.0000
55.1600 10128.0000 1.0000
55.1800 9966.0000 1.0000
55.2000 10045.0000 1.0000
55.2200 9994.0000 1.0000
55.2400 10001.0000 1.0000
55.2600 9878.0000 1.0000
55.2800 10125.0000 1.0000
55.3000 10196.0000 1.0000
55.3200 10371.0000 1.0000
55.3400 10665.0000 1.0000
55.3600 10563.0000 1.0000
55.3800 10498.0000 1.0000
55.4000 10303.0000 1.0000
55.4200 10067.0000 1.0000
55.4400 10113.0000 1.0000
55.4600 10266.0000 1.0000
55.4800 10217.0000 1.0000
55.5000 10420.0000 1.0000
55.5200 10299.0000 1.0000
55.5400 10375.0000 1.0000
55.5600 10097.0000 1.0000
55.5800 10057.0000 1.0000
55.6000 10048.0000 1.0000
55.6200 10095.0000 1.0000
55.6400 10190.0000 1.0000
55.6600 9964.0000 1.0000
55.6800 10139.0000 1.0000
55.7000 10163.0000 1.0000
55.7200 10095.0000 1.0000
55.7400 9986.0000 1.0000
55.7600 9927.0000 1.0000
55.7800 9937.0000 1.0000
55.8000 10195.0000 1.0000
55.8200 10280.0000 1.0000
55.8400 10252.0000 1.0000
55.8600 9869.0000 1.0000
55.8800 10001.0000 1.0000
55.9000 10150.0000 1.0000
55.9200 10026.0000 1.0000
55.9400 10103.0000 1.0000
55.9600 9938.0000 1.0000
55.9800 9872.0000 1.0000
56.0000 10062.0000 1.0000
56.0200 10050.0000 1.0000
56.0400 10093.0000 1.0000
56.0600 10074.0000 1.0000
56.0800 10094.0000 1.0000
56.1000 10085.0000 1.0000
56.1200 10170.0000 1.0000
56.1400 10062.0000 1.0000
56.1600 10144.0000 1.0000
56.1800 10026.0000 1.0000
56.2000 10085.0000 1.0000
56.2200 9900.0000 1.0000
56.2400 9977.0000 1.0000
56.2600 10136.0000 1.0000
56.2800 9965.0000 1.0000
56.3000 10104.0000 1.0000
56.3200 9970.0000 1.0000
56.3400 10134.0000 1.0000
56.3600 10170.0000 1.0000
56.3800 10074.0000 1.0000
56.4000 10124.0000 1.0000
56.4200 10130.0000 1.0000
56.4400 10020.0000 1.0000
56.4600 10027.0000 1.0000
56.4800 10013.0000 1.0000
56.5000 9920.0000 1.0000
56.5200 10145.0000 1.0000
56.5400 10002.0000 1.0000
56.5600 9984.0000 1.0000
56.5800 10000.0000 1.0000
56.6000 9994.0000 1.0000
56.6200 10148.0000 1.0000
56.6400 10100.0000 1.0000
56.6600 10101.0000 1.0000
56.6800 9934.0000 1.0000
56.7000 10129.0000 1.0000
56.7200 10049.0000 1.0000
56.7400 9917.0000 1.0000
56.7600 9989.0000 1.0000
56.7800 9968.0000 1.0000
56.8000 10082.0000 1.0000
56.8200 10279.0000 1.0000
56.8400 10022.0000 1.0000
56.8600 10232.0000 1.0000
56.8800 10231.0000 1.0000
56.9000 10076.0000 1.0000
56.9200 10130.0000 1.0000
56.9400 10336.0000 1.0000
56.9600 10426.0000 1.0000
56.9800 10450.0000 1.0000
57.0000 10449.0000 1.0000
57.0200 10583.0000 1.0000
57.0400 10734.0000 1.0000
57.0600 10691.0000 1.0000
57.0800 10730.0000 1.0000
57.1000 10503.0000 1.0000
57.1200 10673.0000 1.0000
57.1400 10666.0000 1.0000
57.1600 10597.0000 1.0000
57.1800 10604.0000 1.0000
57.2000 10717.0000 1.0000
57.2200 10819.0000 1.0000
57.2400 10869.0000 1.0000
57.2600 10846.0000 1.0000
57.2800 10711.0000 1.0000
57.3000 10818.0000 1.0000
57.3200 10918.0000 1.0000
57.3400 10989.0000 1.0000
57.3600 11096.0000 1.0000
57.3800 11379.0000 1.0000
57.4000 11390.0000 1.0000
57.4200 11902.0000 1.0000
57.4400 12353.0000 1.0000
57.4600 12772.0000 1.0000
57.4800 13311.0000 1.0000
57.5000 13560.0000 1.0000
57.5200 13528.0000 1.0000
57.5400 13353.0000 1.0000
57.5600 13085.0000 1.0000
57.5800 12999.0000 1.0000
57.6000 13037.0000 1.0000
57.6200 13165.0000 1.0000
57.6400 13117.0000 1.0000
57.6600 12755.0000 1.0000
57.6800 12571.0000 1.0000
57.7000 12043.0000 1.0000
57.7200 11553.0000 1.0000
57.7400 11436.0000 1.0000
57.7600 11229.0000 1.0000
57.7800 11146.0000 1.0000
57.8000 11054.0000 1.0000
57.8200 10825.0000 1.0000
57.8400 10583.0000 1.0000
57.8600 10602.0000 1.0000
57.8800 10165.0000 1.0000
57.9000 10433.0000 1.0000
57.9200 10334.0000 1.0000
57.9400 10326.0000 1.0000
57.9600 10379.0000 1.0000
57.9800 10053.0000 1.0000
58.0000 10108.0000 1.0000
58.0200 10113.0000 1.0000
58.0400 10161.0000 1.0000
58.0600 10073.0000 1.0000
58.0800 10080.0000 1.0000
58.1000 10042.0000 1.0000
58.1200 10009.0000 1.0000
58.1400 10073.0000 1.0000
58.1600 9933.0000 1.0000
58.1800 10034.0000 1.0000
58.2000 10111.0000 1.0000
58.2200 9839.0000 1.0000
58.2400 10096.0000 1.0000
58.2600 10004.0000 1.0000
58.2800 10020.0000 1.0000
58.3000 9996.0000 1.0000
58.3200 9876.0000 1.0000
58.3400 9974.0000 1.0000
58.3600 9979.0000 1.0000
58.3800 10087.0000 1.0000
58.4000 9904.0000 1.0000
58.4200 9967.0000 1.0000
58.4400 10059.0000 1.0000
58.4600 9991.0000 1.0000
58.4800 9885.0000 1.0000
58.5000 10051.0000 1.0000
58.5200 10002.0000 1.0000
58.5400 10108.0000 1.0000
58.5600 10056.0000 1.0000
58.5800 10018.0000 1.0000
58.6000 10063.0000 1.0000
58.6200 10089.0000 1.0000
58.6400 10079.0000 1.0000
58.6600 10144.0000 1.0000
58.6800 10104.0000 1.0000
58.7000 9892.0000 1.0000
58.7200 10042.0000 1.0000
58.7400 10037.0000 1.0000
58.7600 9986.0000 1.0000
58.7800 10106.0000 1.0000
58.8000 10058.0000 1.0000
58.8200 9852.0000 1.0000
58.8400 10023.0000 1.0000
58.8600 9918.0000 1.0000
58.8800 10153.0000 1.0000
58.9000 10158.0000 1.0000
58.9200 10063.0000 1.0000
58.9400 9930.0000 1.0000
58.9600 9845.0000 1.0000
58.9800 10089.0000 1.0000
59.0000 9829.0000 1.0000
59.0200 9891.0000 1.0000
59.0400 10033.0000 1.0000
59.0600 9876.0000 1.0000
59.0800 10101.0000 1.0000
59.1000 9991.0000 1.0000
59.1200 10069.0000 1.0000
59.1400 10018.0000 1.0000
59.1600 10102.0000 1.0000
59.1800 9869.0000 1.0000
59.2000 10000.0000 1.0000
59.2200 9837.0000 1.0000
59.2400 10066.0000 1.0000
59.2600 9992.0000 1.0000
59.2800 10012.0000 1.0000
59.3000 10171.0000 1.0000
59.3200 9830.0000 1.0000
59.3400 9919.0000 1.0000
59.3600 9937.0000 1.0000
59.3800 10012.0000 1.0000
59.4000 9963.0000 1.0000
59.4200 9857.0000 1.0000
59.4400 9944.0000 1.0000
59.4600 10126.0000 1.0000
59.4800 9890.0000 1.0000
59.5000 9976.0000 1.0000
59.5200 9897.0000 1.0000
59.5400 10060.0000 1.0000
59.5600 10054.0000 1.0000
59.5800 10081.0000 1.0000
59.6000 10013.0000 1.0000
59.6200 9957.0000 1.0000
59.6400 10269.0000 1.0000
59.6600 10188.0000 1.0000
59.6800 10044.0000 1.0000
59.7000 10069.0000 1.0000
59.7200 10363.0000 1.0000
59.7400 10155.0000 1.0000
59.7600 10229.0000 1.0000
59.7800 10129.0000 1.0000
59.8000 10149.0000 1.0000
59.8200 10250.0000 1.0000
59.8400 10333.0000 1.0000
59.8600 10319.0000 1.0000
59.8800 10775.0000 1.0000
59.9000 10892.0000 1.0000
59.9200 11866.0000 1.0000
59.9400 12747.0000 1.0000
59.9600 13609.0000 1.0000
59.9800 13691.0000 1.0000
60.0000 12458.0000 1.0000
60.0200 11516.0000 1.0000
60.0400 10892.0000 1.0000
60.0600 10691.0000 1.0000
60.0800 11031.0000 1.0000
60.1000 11506.0000 1.0000
60.1200 11893.0000 1.0000
60.1400 11851.0000 1.0000
60.1600 11493.0000 1.0000
60.1800 10837.0000 1.0000
60.2000 10550.0000 1.0000
60.2200 10082.0000 1.0000
60.2400 10308.0000 1.0000
60.2600 10209.0000 1.0000
60.2800 10255.0000 1.0000
60.3000 10224.0000 1.0000
60.3200 9949.0000 1.0000
60.3400 10016.0000 1.0000
60.3600 9923.0000 1.0000
60.3800 10067.0000 1.0000
60.4000 10097.0000 1.0000
60.4200 10087.0000 1.0000
60.4400 9958.0000 1.0000
60.4600 10078.0000 1.0000
60.4800 9982.0000 1.0000
60.5000 10078.0000 1.0000
60.5200 9883.0000 1.0000
60.5400 9955.0000 1.0000
60.5600 10084.0000 1.0000
60.5800 10005.0000 1.0000
60.6000 10040.0000 1.0000
60.6200 10080.0000 1.0000
60.6400 10008.0000 1.0000
60.6600 10181.0000 1.0000
60.6800 10079.0000 1.0000
60.7000 10029.0000 1.0000
60.7200 9840.0000 1.0000
60.7400 10113.0000 1.0000
60.7600 10105.0000 1.0000
60.7800 10045.0000 1.0000
60.8000 10054.0000 1.0000
60.8200 10062.0000 1.0000
60.8400 10112.0000 1.0000
60.8600 9938.0000 1.0000
60.8800 10044.0000 1.0000
60.9000 10069.0000 1.0000
60.9200 10040.0000 1.0000
60.9400 9944.0000 1.0000
60.9600 9964.0000 1.0000
60.9800 9949.0000 1.0000
61.0000 10008.0000 1.0000
61.0200 10068.0000 1.0000
61.0400 10168.0000 1.0000
61.0600 10171.0000 1.0000
61.0800 10148.0000 1.0000
61.1000 10181.0000 1.0000
61.1200 10326.0000 1.0000
61.1400 10205.0000 1.0000
61.1600 10077.0000 1.0000
61.1800 10278.0000 1.0000
61.2000 10081.0000 1.0000
61.2200 10161.0000 1.0000
61.2400 10356.0000 1.0000
61.2600 10308.0000 1.0000
61.2800 10272.0000 1.0000
61.3000 10406.0000 1.0000
61.3200 10319.0000 1.0000
61.3400 10293.0000 1.0000
61.3600 10065.0000 1.0000
61.3800 10216.0000 1.0000
61.4000 10201.0000 1.0000
61.4200 10137.0000 1.0000
61.4400 9981.0000 1.0000
61.4600 10015.0000 1.0000
61.4800 9941.0000 1.0000
61.5000 10208.0000 1.0000
61.5200 10294.0000 1.0000
61.5400 10032.0000 1.0000
61.5600 10016.0000 1.0000
61.5800 10199.0000 1.0000
61.6000 9955.0000 1.0000
61.6200 10062.0000 1.0000
61.6400 9971.0000 1.0000
61.6600 10106.0000 1.0000
61.6800 9990.0000 1.0000
61.7000 10230.0000 1.0000
61.7200 10053.0000 1.0000
61.7400 10126.0000 1.0000
61.7600 9875.0000 1.0000
61.7800 9988.0000 1.0000
61.8000 10095.0000 1.0000
61.8200 9991.0000 1.0000
61.8400 9968.0000 1.0000
61.8600 9961.0000 1.0000
61.8800 10142.0000 1.0000
61.9000 10124.0000 1.0000
61.9200 10121.0000 1.0000
61.9400 10262.0000 1.0000
61.9600 10009.0000 1.0000
61.9800 10023.0000 1.0000
62.0000 10229.0000 1.0000
62.0200 10192.0000 1.0000
62.0400 9909.0000 1.0000
62.0600 10189.0000 1.0000
62.0800 10097.0000 1.0000
62.1000 10326.0000 1.0000
62.1200 10409.0000 1.0000
62.1400 10210.0000 1.0000
62.1600 10364.0000 1.0000
62.1800 10298.0000 1.0000
62.2000 10385.0000 1.0000
62.2200 10520.0000 1.0000
62.2400 10598.0000 1.0000
62.2600 10573.0000 1.0000
62.2800 10786.0000 1.0000
62.3000 10723.0000 1.0000
62.3200 11120.0000 1.0000
62.3400 11484.0000 1.0000
62.3600 11789.0000 1.0000
62.3800 12339.0000 1.0000
62.4000 13183.0000 1.0000
62.4200 14092.0000 1.0000
62.4400 14548.0000 1.0000
62.4600 14616.0000 1.0000
62.4800 14236.0000 1.0000
62.5000 13350.0000 1.0000
62.5200 12939.0000 1.0000
62.5400 12729.0000 1.0000
62.5600 12690.0000 1.0000
62.5800 12894.0000 1.0000
62.6000 13158.0000 1.0000
62.6200 13172.0000 1.0000
62.6400 13270.0000 1.0000
62.6600 12767.0000 1.0000
62.6800 12182.0000 1.0000
62.7000 11716.0000 1.0000
62.7200 11489.0000 1.0000
62.7400 11333.0000 1.0000
62.7600 11020.0000 1.0000
62.7800 10883.0000 1.0000
62.8000 10912.0000 1.0000
62.8200 10744.0000 1.0000
62.8400 10784.0000 1.0000
62.8600 10598.0000 1.0000
62.8800 10625.0000 1.0000
62.9000 10323.0000 1.0000
62.9200 10474.0000 1.0000
62.9400 10443.0000 1.0000
62.9600 10156.0000 1.0000
62.9800 10195.0000 1.0000
63.0000 10044.0000 1.0000
63.0200 10274.0000 1.0000
63.0400 10143.0000 1.0000
63.0600 10306.0000 1.0000
63.0800 10199.0000 1.0000
63.1000 10150.0000 1.0000
63.1200 9996.0000 1.0000
63.1400 10138.0000 1.0000
63.1600 10147.0000 1.0000
63.1800 10049.0000 1.0000
63.2000 10100.0000 1.0000
63.2200 10083.0000 1.0000
63.2400 10022.0000 1.0000
63.2600 10201.0000 1.0000
63.2800 10064.0000 1.0000
63.3000 10160.0000 1.0000
63.3200 10089.0000 1.0000
63.3400 10165.0000 1.0000
63.3600 10078.0000 1.0000
63.3800 9837.0000 1.0000
63.4000 9980.0000 1.0000
63.4200 10189.0000 1.0000
63.4400 10008.0000 1.0000
63.4600 10164.0000 1.0000
63.4800 10104.0000 1.0000
63.5000 10076.0000 1.0000
63.5200 10176.0000 1.0000
63.5400 10097.0000 1.0000
63.5600 10201.0000 1.0000
63.5800 10089.0000 1.0000
63.6000 10032.0000 1.0000
63.6200 10314.0000 1.0000
63.6400 10142.0000 1.0000
63.6600 10108.0000 1.0000
63.6800 10258.0000 1.0000
63.7000 10337.0000 1.0000
63.7200 10501.0000 1.0000
63.7400 10409.0000 1.0000
63.7600 10593.0000 1.0000
63.7800 10448.0000 1.0000
63.8000 10561.0000 1.0000
63.8200 10452.0000 1.0000
63.8400 10689.0000 1.0000
63.8600 10804.0000 1.0000
63.8800 10993.0000 1.0000
63.9000 11296.0000 1.0000
63.9200 11798.0000 1.0000
63.9400 12329.0000 1.0000
63.9600 13266.0000 1.0000
63.9800 13880.0000 1.0000
64.0000 14659.0000 1.0000
64.0200 14661.0000 1.0000
64.0400 14529.0000 1.0000
64.0600 13821.0000 1.0000
64.0800 13072.0000 1.0000
64.1000 12479.0000 1.0000
64.1200 12253.0000 1.0000
64.1400 12503.0000 1.0000
64.1600 12693.0000 1.0000
64.1800 12598.0000 1.0000
64.2000 12673.0000 1.0000
64.2200 12401.0000 1.0000
64.2400 12054.0000 1.0000
64.2600 11525.0000 1.0000
64.2800 10985.0000 1.0000
64.3000 10952.0000 1.0000
64.3200 10612.0000 1.0000
64.3400 10606.0000 1.0000
64.3600 10428.0000 1.0000
64.3800 10393.0000 1.0000
64.4000 10286.0000 1.0000
64.4200 10374.0000 1.0000
64.4400 10301.0000 1.0000
64.4600 10066.0000 1.0000
64.4800 10243.0000 1.0000
64.5000 10187.0000 1.0000
64.5200 10045.0000 1.0000
64.5400 9892.0000 1.0000
64.5600 10186.0000 1.0000
64.5800 10071.0000 1.0000
64.6000 10197.0000 1.0000
64.6200 10201.0000 1.0000
64.6400 10073.0000 1.0000
64.6600 10096.0000 1.0000
64.6800 10036.0000 1.0000
64.7000 10082.0000 1.0000
64.7200 9972.0000 1.0000
64.7400 9945.0000 1.0000
64.7600 9946.0000 1.0000
64.7800 10117.0000 1.0000
64.8000 10086.0000 1.0000
64.8200 10007.0000 1.0000
64.8400 9971.0000 1.0000
64.8600 9995.0000 1.0000
64.8800 9902.0000 1.0000
64.9000 10022.0000 1.0000
64.9200 10015.0000 1.0000
64.9400 10090.0000 1.0000
64.9600 10146.0000 1.0000
64.9800 9993.0000 1.0000
65.0000 9906.0000 1.0000
65.0200 9881.0000 1.0000
65.0400 10099.0000 1.0000
65.0600 9902.0000 1.0000
65.0800 10081.0000 1.0000
65.1000 10063.0000 1.0000
65.1200 9995.0000 1.0000
65.1400 10055.0000 1.0000
65.1600 9992.0000 1.0000
65.1800 9969.0000 1.0000
65.2000 10021.0000 1.0000
65.2200 10163.0000 1.0000
65.2400 9946.0000 1.0000
65.2600 10006.0000 1.0000
65.2800 10201.0000 1.0000
65.3000 10020.0000 1.0000
65.3200 10001.0000 1.0000
65.3400 9998.0000 1.0000
65.3600 9899.0000 1.0000
65.3800 9876.0000 1.0000
65.4000 10147.0000 1.0000
65.4200 9898.0000 1.0000
65.4400 10024.0000 1.0000
65.4600 9963.0000 1.0000
65.4800 9983.0000 1.0000
65.5000 9988.0000 1.0000
65.5200 10063.0000 1.0000
65.5400 10077.0000 1.0000
65.5600 10071.0000 1.0000
65.5800 10057.0000 1.0000
65.6000 9980.0000 1.0000
65.6200 9882.0000 1.0000
65.6400 10182.0000 1.0000
65.6600 10133.0000 1.0000
65.6800 10291.0000 1.0000
65.7000 10149.0000 1.0000
65.7200 10289.0000 1.0000
65.7400 10316.0000 1.0000
65.7600 10317.0000 1.0000
65.7800 10247.0000 1.0000
65.8000 10393.0000 1.0000
65.8200 10470.0000 1.0000
65.8400 10326.0000 1.0000
65.8600 10270.0000 1.0000
65.8800 10002.0000 1.0000
65.9000 10180.0000 1.0000
65.9200 10220.0000 1.0000
65.9400 10228.0000 1.0000
65.9600 10127.0000 1.0000
65.9800 10232.0000 1.0000
66.0000 10301.0000 1.0000
66.0200 10242.0000 1.0000
66.0400 10176.0000 1.0000
66.0600 10169.0000 1.0000
66.0800 10162.0000 1.0000
66.1000 10244.0000 1.0000
66.1200 10233.0000 1.0000
66.1400 10003.0000 1.0000
66.1600 10067.0000 1.0000
66.1800 10134.0000 1.0000
66.2000 10036.0000 1.0000
66.2200 10123.0000 1.0000
66.2400 10002.0000 1.0000
66.2600 10214.0000 1.0000
66.2800 9967.0000 1.0000
66.3000 10091.0000 1.0000
66.3200 10342.0000 1.0000
66.3400 10087.0000 1.0000
66.3600 10283.0000 1.0000
66.3800 10353.0000 1.0000
66.4000 10320.0000 1.0000
66.4200 10468.0000 1.0000
66.4400 10522.0000 1.0000
66.4600 10710.0000 1.0000
66.4800 10789.0000 1.0000
66.5000 11001.0000 1.0000
66.5200 11038.0000 1.0000
66.5400 11111.0000 1.0000
66.5600 10922.0000 1.0000
66.5800 10569.0000 1.0000
66.6000 10583.0000 1.0000
66.6200 10419.0000 1.0000
66.6400 10629.0000 1.0000
66.6600 10672.0000 1.0000
66.6800 10603.0000 1.0000
66.7000 10559.0000 1.0000
66.7200 10569.0000 1.0000
66.7400 10419.0000 1.0000
66.7600 10420.0000 1.0000
66.7800 10323.0000 1.0000
66.8000 10077.0000 1.0000
66.8200 10300.0000 1.0000
66.8400 10216.0000 1.0000
66.8600 10125.0000 1.0000
66.8800 10049.0000 1.0000
66.9000 9973.0000 1.0000
66.9200 9932.0000 1.0000
66.9400 10098.0000 1.0000
66.9600 10094.0000 1.0000
66.9800 10110.0000 1.0000
67.0000 10041.0000 1.0000
67.0200 10170.0000 1.0000
67.0400 10018.0000 1.0000
67.0600 9995.0000 1.0000
67.0800 10157.0000 1.0000
67.1000 10152.0000 1.0000
67.1200 10095.0000 1.0000
67.1400 10086.0000 1.0000
67.1600 10193.0000 1.0000
67.1800 9971.0000 1.0000
67.2000 9871.0000 1.0000
67.2200 10057.0000 1.0000
67.2400 9929.0000 1.0000
67.2600 9955.0000 1.0000
67.2800 10162.0000 1.0000
67.3000 9980.0000 1.0000
67.3200 10132.0000 1.0000
67.3400 9862.0000 1.0000
67.3600 10124.0000 1.0000
67.3800 10179.0000 1.0000
67.4000 10239.0000 1.0000
67.4200 10134.0000 1.0000
67.4400 10035.0000 1.0000
67.4600 10086.0000 1.0000
67.4800 10061.0000 1.0000
67.5000 10098.0000 1.0000
67.5200 10154.0000 1.0000
67.5400 10170.0000 1.0000
67.5600 10205.0000 1.0000
67.5800 10260.0000 1.0000
67.6000 10222.0000 1.0000
67.6200 10139.0000 1.0000
67.6400 10393.0000 1.0000
67.6600 10310.0000 1.0000
67.6800 10617.0000 1.0000
67.7000 11090.0000 1.0000
67.7200 11537.0000 1.0000
67.7400 11808.0000 1.0000
67.7600 11522.0000 1.0000
67.7800 11509.0000 1.0000
67.8000 10892.0000 1.0000
67.8200 10610.0000 1.0000
67.8400 10441.0000 1.0000
67.8600 10466.0000 1.0000
67.8800 10720.0000 1.0000
67.9000 10635.0000 1.0000
67.9200 11213.0000 1.0000
67.9400 11074.0000 1.0000
67.9600 11059.0000 1.0000
67.9800 11102.0000 1.0000
68.0000 10912.0000 1.0000
68.0200 10858.0000 1.0000
68.0400 11059.0000 1.0000
68.0600 11226.0000 1.0000
68.0800 11476.0000 1.0000
68.1000 12230.0000 1.0000
68.1200 13528.0000 1.0000
68.1400 15093.0000 1.0000
68.1600 15077.0000 1.0000
68.1800 14067.0000 1.0000
68.2000 13066.0000 1.0000
68.2200 12560.0000 1.0000
68.2400 12610.0000 1.0000
68.2600 12350.0000 1.0000
68.2800 12735.0000 1.0000
68.3000 13475.0000 1.0000
68.3200 13975.0000 1.0000
68.3400 13794.0000 1.0000
68.3600 13172.0000 1.0000
68.3800 12406.0000 1.0000
68.4000 11726.0000 1.0000
68.4200 11302.0000 1.0000
68.4400 11386.0000 1.0000
68.4600 11105.0000 1.0000
68.4800 11224.0000 1.0000
68.5000 11343.0000 1.0000
68.5200 11001.0000 1.0000
68.5400 10670.0000 1.0000
68.5600 10548.0000 1.0000
68.5800 10400.0000 1.0000
68.6000 10336.0000 1.0000
68.6200 10087.0000 1.0000
68.6400 10229.0000 1.0000
68.6600 10231.0000 1.0000
68.6800 10058.0000 1.0000
68.7000 10149.0000 1.0000
68.7200 10086.0000 1.0000
68.7400 10039.0000 1.0000
68.7600 10082.0000 1.0000
68.7800 9886.0000 1.0000
68.8000 10321.0000 1.0000
68.8200 10186.0000 1.0000
68.8400 10055.0000 1.0000
68.8600 10035.0000 1.0000
68.8800 10059.0000 1.0000
68.9000 10013.0000 1.0000
68.9200 10337.0000 1.0000
68.9400 10225.0000 1.0000
68.9600 10073.0000 1.0000
68.9800 10403.0000 1.0000
69.0000 10156.0000 1.0000
69.0200 10212.0000 1.0000
69.0400 10001.0000 1.0000
69.0600 10167.0000 1.0000
69.0800 10105.0000 1.0000
69.1000 9979.0000 1.0000
69.1200 10030.0000 1.0000
69.1400 9882.0000 1.0000
69.1600 9968.0000 1.0000
69.1800 10120.0000 1.0000
69.2000 10017.0000 1.0000
69.2200 10076.0000 1.0000
69.2400 10030.0000 1.0000
69.2600 10145.0000 1.0000
69.2800 10097.0000 1.0000
69.3000 9941.0000 1.0000
69.3200 10008.0000 1.0000
69.3400 10079.0000 1.0000
69.3600 10013.0000 1.0000
69.3800 10180.0000 1.0000
69.4000 10159.0000 1.0000
69.4200 10004.0000 1.0000
69.4400 10078.0000 1.0000
69.4600 10203.0000 1.0000
69.4800 10118.0000 1.0000
69.5000 10178.0000 1.0000
69.5200 10228.0000 1.0000
69.5400 10245.0000 1.0000
69.5600 10295.0000 1.0000
69.5800 10491.0000 1.0000
69.6000 10367.0000 1.0000
69.6200 10331.0000 1.0000
69.6400 10386.0000 1.0000
69.6600 10304.0000 1.0000
69.6800 10321.0000 1.0000
69.7000 10205.0000 1.0000
69.7200 10166.0000 1.0000
69.7400 10152.0000 1.0000
69.7600 10120.0000 1.0000
69.7800 10172.0000 1.0000
69.8000 10397.0000 1.0000
69.8200 10295.0000 1.0000
69.8400 10286.0000 1.0000
69.8600 10128.0000 1.0000
69.8800 10117.0000 1.0000
69.9000 10088.0000 1.0000
69.9200 10012.0000 1.0000
69.9400 9967.0000 1.0000
69.9600 10137.0000 1.0000
69.9800 9999.0000 1.0000
70.0000 10116.0000 1.0000
70.0200 9917.0000 1.0000
70.0400 10180.0000 1.0000
70.0600 9904.0000 1.0000
70.0800 10009.0000 1.0000
70.1000 9930.0000 1.0000
70.1200 9983.0000 1.0000
70.1400 10000.0000 1.0000
70.1600 10148.0000 1.0000
70.1800 9929.0000 1.0000
70.2000 9981.0000 1.0000
70.2200 10002.0000 1.0000
70.2400 10124.0000 1.0000
70.2600 10039.0000 1.0000
70.2800 9930.0000 1.0000
70.3000 10180.0000 1.0000
70.3200 10066.0000 1.0000
70.3400 9993.0000 1.0000
70.3600 10024.0000 1.0000
70.3800 10145.0000 1.0000
70.4000 10010.0000 1.0000
70.4200 10070.0000 1.0000
70.4400 9869.0000 1.0000
70.4600 10098.0000 1.0000
70.4800 10086.0000 1.0000
70.5000 10106.0000 1.0000
70.5200 9974.0000 1.0000
70.5400 9922.0000 1.0000
70.5600 9967.0000 1.0000
70.5800 10011.0000 1.0000
70.6000 10166.0000 1.0000
70.6200 9951.0000 1.0000
70.6400 9949.0000 1.0000
70.6600 10019.0000 1.0000
70.6800 10144.0000 1.0000
70.7000 10061.0000 1.0000
70.7200 9998.0000 1.0000
70.7400 10030.0000 1.0000
70.7600 10190.0000 1.0000
70.7800 10000.0000 1.0000
70.8000 10016.0000 1.0000
70.8200 9922.0000 1.0000
70.8400 10003.0000 1.0000
70.8600 9946.0000 1.0000
70.8800 9994.0000 1.0000
70.9000 9984.0000 1.0000
70.9200 10191.0000 1.0000
70.9400 9919.0000 1.0000
70.9600 9944.0000 1.0000
70.9800 9882.0000 1.0000
71.0000 10083.0000 1.0000
71.0200 10020.0000 1.0000
71.0400 9876.0000 1.0000
71.0600 10026.0000 1.0000
71.0800 10187.0000 1.0000
71.1000 10256.0000 1.0000
71.1200 10047.0000 1.0000
71.1400 9978.0000 1.0000
71.1600 10139.0000 1.0000
71.1800 10171.0000 1.0000
71.2000 9927.0000 1.0000
71.2200 10184.0000 1.0000
71.2400 10088.0000 1.0000
71.2600 10026.0000 1.0000
71.2800 10047.0000 1.0000
71.3000 9932.0000 1.0000
71.3200 10009.0000 1.0000
71.3400 9993.0000 1.0000
71.3600 10050.0000 1.0000
71.3800 10048.0000 1.0000
71.4000 10106.0000 1.0000
71.4200 10033.0000 1.0000
71.4400 10185.0000 1.0000
71.4600 10057.0000 1.0000
71.4800 10103.0000 1.0000
71.5000 10159.0000 1.0000
71.5200 10064.0000 1.0000
71.5400 10019.0000 1.0000
71.5600 10173.0000 1.0000
71.5800 10063.0000 1.0000
71.6000 10184.0000 1.0000
71.6200 10091.0000 1.0000
71.6400 10070.0000 1.0000
71.6600 9814.0000 1.0000
71.6800 9985.0000 1.0000
71.7000 9948.0000 1.0000
71.7200 10182.0000 1.0000
71.7400 10010.0000 1.0000
71.7600 10238.0000 1.0000
71.7800 10283.0000 1.0000
71.8000 10149.0000 1.0000
71.8200 10364.0000 1.0000
71.8400 10314.0000 1.0000
71.8600 10745.0000 1.0000
71.8800 10622.0000 1.0000
71.9000 10939.0000 1.0000
71.9200 11087.0000 1.0000
71.9400 11375.0000 1.0000
71.9600 11651.0000 1.0000
71.9800 11414.0000 1.0000
72.0000 11278.0000 1.0000
72.0200 11196.0000 1.0000
72.0400 10717.0000 1.0000
72.0600 10775.0000 1.0000
72.0800 10536.0000 1.0000
72.1000 10772.0000 1.0000
72.1200 10774.0000 1.0000
72.1400 10739.0000 1.0000
72.1600 10861.0000 1.0000
72.1800 10815.0000 1.0000
72.2000 10611.0000 1.0000
72.2200 10489.0000 1.0000
72.2400 10647.0000 1.0000
72.2600 10452.0000 1.0000
72.2800 10420.0000 1.0000
72.3000 10486.0000 1.0000
72.3200 10346.0000 1.0000
72.3400 10168.0000 1.0000
72.3600 10240.0000 1.0000
72.3800 10235.0000 1.0000
72.4000 10165.0000 1.0000
72.4200 10182.0000 1.0000
72.4400 10170.0000 1.0000
72.4600 10118.0000 1.0000
72.4800 10273.0000 1.0000
72.5000 10197.0000 1.0000
72.5200 10193.0000 1.0000
72.5400 10007.0000 1.0000
72.5600 10125.0000 1.0000
72.5800 10331.0000 1.0000
72.6000 9919.0000 1.0000
72.6200 10103.0000 1.0000
72.6400 10144.0000 1.0000
72.6600 9921.0000 1.0000
72.6800 10145.0000 1.0000
72.7000 9912.0000 1.0000
72.7200 9879.0000 1.0000
72.7400 10016.0000 1.0000
72.7600 9959.0000 1.0000
72.7800 10085.0000 1.0000
72.8000 10023.0000 1.0000
72.8200 10023.0000 1.0000
72.8400 9959.0000 1.0000
72.8600 9990.0000 1.0000
72.8800 9950.0000 1.0000
72.9000 10065.0000 1.0000
72.9200 9848.0000 1.0000
72.9400 9792.0000 1.0000
72.9600 10050.0000 1.0000
72.9800 9854.0000 1.0000
73.0000 10045.0000 1.0000
73.0200 9905.0000 1.0000
73.0400 9905.0000 1.0000
73.0600 9922.0000 1.0000
73.0800 10041.0000 1.0000
73.1000 9956.0000 1.0000
73.1200 9992.0000 1.0000
73.1400 9972.0000 1.0000
73.1600 9901.0000 1.0000
73.1800 9976.0000 1.0000
73.2000 9953.0000 1.0000
73.2200 9906.0000 1.0000
73.2400 10042.0000 1.0000
73.2600 9829.0000 1.0000
73.2800 9802.0000 1.0000
73.3000 10085.0000 1.0000
73.3200 9897.0000 1.0000
73.3400 9974.0000 1.0000
73.3600 9979.0000 1.0000
73.3800 9898.0000 1.0000
73.4000 10099.0000 1.0000
73.4200 10073.0000 1.0000
73.4400 10338.0000 1.0000
73.4600 10647.0000 1.0000
73.4800 10557.0000 1.0000
73.5000 10478.0000 1.0000
73.5200 10372.0000 1.0000
73.5400 10044.0000 1.0000
73.5600 9899.0000 1.0000
73.5800 10048.0000 1.0000
73.6000 10118.0000 1.0000
73.6200 10243.0000 1.0000
73.6400 10025.0000 1.0000
73.6600 10327.0000 1.0000
73.6800 10448.0000 1.0000
73.7000 10335.0000 1.0000
73.7200 9967.0000 1.0000
73.7400 9967.0000 1.0000
73.7600 10044.0000 1.0000
73.7800 10007.0000 1.0000
73.8000 10066.0000 1.0000
73.8200 10095.0000 1.0000
73.8400 10146.0000 1.0000
73.8600 9938.0000 1.0000
73.8800 10145.0000 1.0000
73.9000 10032.0000 1.0000
73.9200 9997.0000 1.0000
73.9400 9825.0000 1.0000
73.9600 10015.0000 1.0000
73.9800 9826.0000 1.0000
74.0000 10023.0000 1.0000
74.0200 10117.0000 1.0000
74.0400 10121.0000 1.0000
74.0600 10146.0000 1.0000
74.0800 10149.0000 1.0000
74.1000 9937.0000 1.0000
74.1200 9996.0000 1.0000
74.1400 10262.0000 1.0000
74.1600 10091.0000 1.0000
74.1800 10150.0000 1.0000
74.2000 10244.0000 1.0000
74.2200 10067.0000 1.0000
74.2400 10119.0000 1.0000
74.2600 10040.0000 1.0000
74.2800 10290.0000 1.0000
74.3000 10139.0000 1.0000
74.3200 10081.0000 1.0000
74.3400 10099.0000 1.0000
74.3600 10022.0000 1.0000
74.3800 10140.0000 1.0000
74.4000 9881.0000 1.0000
74.4200 10036.0000 1.0000
74.4400 9848.0000 1.0000
74.4600 9954.0000 1.0000
74.4800 10018.0000 1.0000
74.5000 9914.0000 1.0000
74.5200 10154.0000 1.0000
74.5400 10108.0000 1.0000
74.5600 9924.0000 1.0000
74.5800 9794.0000 1.0000
74.6000 9954.0000 1.0000
74.6200 9922.0000 1.0000
74.6400 9973.0000 1.0000
74.6600 10083.0000 1.0000
74.6800 9928.0000 1.0000
74.7000 10018.0000 1.0000
74.7200 9934.0000 1.0000
74.7400 10092.0000 1.0000
74.7600 10018.0000 1.0000
74.7800 9966.0000 1.0000
74.8000 9778.0000 1.0000
74.8200 9877.0000 1.0000
74.8400 10079.0000 1.0000
74.8600 9993.0000 1.0000
74.8800 9842.0000 1.0000
74.9000 10032.0000 1.0000
74.9200 10018.0000 1.0000
74.9400 9938.0000 1.0000
74.9600 10008.0000 1.0000
74.9800 9840.0000 1.0000
75.0000 9890.0000 1.0000
75.0200 10136.0000 1.0000
75.0400 10075.0000 1.0000
75.0600 9922.0000 1.0000
75.0800 9877.0000 1.0000
75.1000 10042.0000 1.0000
75.1200 9928.0000 1.0000
75.1400 10110.0000 1.0000
75.1600 10042.0000 1.0000
75.1800 9947.0000 1.0000
75.2000 10133.0000 1.0000
75.2200 10061.0000 1.0000
75.2400 10148.0000 1.0000
75.2600 10047.0000 1.0000
75.2800 9956.0000 1.0000
75.3000 10366.0000 1.0000
75.3200 10130.0000 1.0000
75.3400 10274.0000 1.0000
75.3600 10446.0000 1.0000
75.3800 10483.0000 1.0000
75.4000 10439.0000 1.0000
75.4200 10679.0000 1.0000
75.4400 10886.0000 1.0000
75.4600 10901.0000 1.0000
75.4800 10881.0000 1.0000
75.5000 10833.0000 1.0000
75.5200 10719.0000 1.0000
75.5400 10720.0000 1.0000
75.5600 10528.0000 1.0000
75.5800 10691.0000 1.0000
75.6000 10693.0000 1.0000
75.6200 11038.0000 1.0000
75.6400 11390.0000 1.0000
75.6600 11649.0000 1.0000
75.6800 11343.0000 1.0000
75.7000 11127.0000 1.0000
75.7200 10667.0000 1.0000
75.7400 10703.0000 1.0000
75.7600 10519.0000 1.0000
75.7800 10253.0000 1.0000
75.8000 10247.0000 1.0000
75.8200 10282.0000 1.0000
75.8400 10484.0000 1.0000
75.8600 10360.0000 1.0000
75.8800 10545.0000 1.0000
75.9000 10477.0000 1.0000
75.9200 10367.0000 1.0000
75.9400 10121.0000 1.0000
75.9600 10194.0000 1.0000
75.9800 9960.0000 1.0000
76.0000 10039.0000 1.0000
76.0200 10044.0000 1.0000
76.0400 10163.0000 1.0000
76.0600 9869.0000 1.0000
76.0800 9946.0000 1.0000
76.1000 10078.0000 1.0000
76.1200 9818.0000 1.0000
76.1400 9923.0000 1.0000
76.1600 9970.0000 1.0000
76.1800 10059.0000 1.0000
76.2000 9993.0000 1.0000
76.2200 10110.0000 1.0000
76.2400 10021.0000 1.0000
76.2600 9990.0000 1.0000
76.2800 9933.0000 1.0000
76.3000 9996.0000 1.0000
76.3200 10058.0000 1.0000
76.3400 9952.0000 1.0000
76.3600 9810.0000 1.0000
76.3800 9909.0000 1.0000
76.4000 9956.0000 1.0000
76.4200 10081.0000 1.0000
76.4400 10006.0000 1.0000
76.4600 9996.0000 1.0000
76.4800 9859.0000 1.0000
76.5000 9934.0000 1.0000
76.5200 9897.0000 1.0000
76.5400 9909.0000 1.0000
76.5600 9922.0000 1.0000
76.5800 9868.0000 1.0000
76.6000 9887.0000 1.0000
76.6200 10032.0000 1.0000
76.6400 9964.0000 1.0000
76.6600 10124.0000 1.0000
76.6800 10042.0000 1.0000
76.7000 10068.0000 1.0000
76.7200 10005.0000 1.0000
76.7400 10047.0000 1.0000
76.7600 10140.0000 1.0000
76.7800 10202.0000 1.0000
76.8000 10136.0000 1.0000
76.8200 10301.0000 1.0000
76.8400 10339.0000 1.0000
76.8600 10579.0000 1.0000
76.8800 10295.0000 1.0000
76.9000 10403.0000 1.0000
76.9200 10276.0000 1.0000
76.9400 10315.0000 1.0000
76.9600 10155.0000 1.0000
76.9800 10055.0000 1.0000
77.0000 10183.0000 1.0000
77.0200 10232.0000 1.0000
77.0400 10099.0000 1.0000
77.0600 10321.0000 1.0000
77.0800 10298.0000 1.0000
77.1000 10216.0000 1.0000
77.1200 10306.0000 1.0000
77.1400 10186.0000 1.0000
77.1600 10263.0000 1.0000
77.1800 10060.0000 1.0000
77.2000 10319.0000 1.0000
77.2200 10151.0000 1.0000
77.2400 10016.0000 1.0000
77.2600 10279.0000 1.0000
77.2800 10173.0000 1.0000
77.3000 10002.0000 1.0000
77.3200 9971.0000 1.0000
77.3400 10071.0000 1.0000
77.3600 10147.0000 1.0000
77.3800 10137.0000 1.0000
77.4000 10098.0000 1.0000
77.4200 10179.0000 1.0000
77.4400 10168.0000 1.0000
77.4600 10134.0000 1.0000
77.4800 10218.0000 1.0000
77.5000 9872.0000 1.0000
77.5200 10279.0000 1.0000
77.5400 10062.0000 1.0000
77.5600 9929.0000 1.0000
77.5800 10196.0000 1.0000
77.6000 10207.0000 1.0000
77.6200 10605.0000 1.0000
77.6400 10761.0000 1.0000
77.6600 11426.0000 1.0000
77.6800 12114.0000 1.0000
77.7000 11785.0000 1.0000
77.7200 11141.0000 1.0000
77.7400 10613.0000 1.0000
77.7600 10567.0000 1.0000
77.7800 10546.0000 1.0000
77.8000 10323.0000 1.0000
77.8200 10348.0000 1.0000
77.8400 10241.0000 1.0000
77.8600 10390.0000 1.0000
77.8800 10632.0000 1.0000
77.9000 10844.0000 1.0000
77.9200 11027.0000 1.0000
77.9400 10758.0000 1.0000
77.9600 10473.0000 1.0000
77.9800 10350.0000 1.0000
78.0000 10097.0000 1.0000
78.0200 10180.0000 1.0000
78.0400 10015.0000 1.0000
78.0600 10099.0000 1.0000
78.0800 10001.0000 1.0000
78.1000 9923.0000 1.0000
78.1200 9897.0000 1.0000
78.1400 10092.0000 1.0000
78.1600 10060.0000 1.0000
78.1800 10043.0000 1.0000
78.2000 9919.0000 1.0000
78.2200 9968.0000 1.0000
78.2400 9904.0000 1.0000
78.2600 9774.0000 1.0000
78.2800 10030.0000 1.0000
78.3000 10058.0000 1.0000
78.3200 9959.0000 1.0000
78.3400 9842.0000 1.0000
78.3600 9914.0000 1.0000
78.3800 9967.0000 1.0000
78.4000 10126.0000 1.0000
78.4200 9906.0000 1.0000
78.4400 9860.0000 1.0000
78.4600 10001.0000 1.0000
78.4800 10097.0000 1.0000
78.5000 10044.0000 1.0000
78.5200 10012.0000 1.0000
78.5400 10025.0000 1.0000
78.5600 9902.0000 1.0000
78.5800 9820.0000 1.0000
78.6000 9894.0000 1.0000
78.6200 9931.0000 1.0000
78.6400 10068.0000 1.0000
78.6600 9984.0000 1.0000
78.6800 9954.0000 1.0000
78.7000 9822.0000 1.0000
78.7200 10103.0000 1.0000
78.7400 9854.0000 1.0000
78.7600 9999.0000 1.0000
78.7800 10058.0000 1.0000
78.8000 9964.0000 1.0000
78.8200 10091.0000 1.0000
78.8400 9992.0000 1.0000
78.8600 10153.0000 1.0000
78.8800 10014.0000 1.0000
78.9000 9944.0000 1.0000
78.9200 10092.0000 1.0000
78.9400 10196.0000 1.0000
78.9600 9908.0000 1.0000
78.9800 9899.0000 1.0000
79.0000 9963.0000 1.0000
79.0200 9933.0000 1.0000
79.0400 10127.0000 1.0000
79.0600 9844.0000 1.0000
79.0800 10022.0000 1.0000
79.1000 9804.0000 1.0000
79.1200 10008.0000 1.0000
79.1400 9857.0000 1.0000
79.1600 9858.0000 1.0000
79.1800 9972.0000 1.0000
79.2000 9941.0000 1.0000
79.2200 9998.0000 1.0000
79.2400 10060.0000 1.0000
79.2600 9937.0000 1.0000
79.2800 10104.0000 1.0000
79.3000 9907.0000 1.0000
79.3200 9983.0000 1.0000
79.3400 9929.0000 1.0000
79.3600 9733.0000 1.0000
79.3800 10058.0000 1.0000
79.4000 9995.0000 1.0000
79.4200 9908.0000 1.0000
79.4400 10022.0000 1.0000
79.4600 9818.0000 1.0000
79.4800 9951.0000 1.0000
79.5000 9957.0000 1.0000
79.5200 10003.0000 1.0000
79.5400 9809.0000 1.0000
79.5600 9926.0000 1.0000
79.5800 10018.0000 1.0000
79.6000 10003.0000 1.0000
79.6200 9917.0000 1.0000
79.6400 9961.0000 1.0000
79.6600 9962.0000 1.0000
79.6800 10017.0000 1.0000
79.7000 9996.0000 1.0000
79.7200 10068.0000 1.0000
79.7400 10121.0000 1.0000
79.7600 9901.0000 1.0000
79.7800 10059.0000 1.0000
79.8000 10187.0000 1.0000
79.8200 10168.0000 1.0000
79.8400 10327.0000 1.0000
79.8600 10371.0000 1.0000
79.8800 10820.0000 1.0000
79.9000 11009.0000 1.0000
79.9200 10753.0000 1.0000
79.9400 10290.0000 1.0000
79.9600 10238.0000 1.0000
79.9800 10022.0000 1.0000
80.0000 10180.0000 1.0000
80.0200 10368.0000 1.0000
80.0400 10548.0000 1.0000
80.0600 10497.0000 1.0000
80.0800 10532.0000 1.0000
80.1000 10364.0000 1.0000
80.1200 10424.0000 1.0000
80.1400 10523.0000 1.0000
80.1600 10516.0000 1.0000
80.1800 10326.0000 1.0000
80.2000 10105.0000 1.0000
80.2200 10004.0000 1.0000
80.2400 10116.0000 1.0000
80.2600 10254.0000 1.0000
80.2800 10120.0000 1.0000
80.3000 10200.0000 1.0000
80.3200 10112.0000 1.0000
80.3400 10156.0000 1.0000
80.3600 9987.0000 1.0000
80.3800 10098.0000 1.0000
80.4000 10205.0000 1.0000
80.4200 10236.0000 1.0000
80.4400 10095.0000 1.0000
80.4600 9991.0000 1.0000
80.4800 10155.0000 1.0000
80.5000 10148.0000 1.0000
80.5200 10245.0000 1.0000
80.5400 10446.0000 1.0000
80.5600 10283.0000 1.0000
80.5800 10239.0000 1.0000
80.6000 10247.0000 1.0000
80.6200 10413.0000 1.0000
80.6400 10608.0000 1.0000
80.6600 10605.0000 1.0000
80.6800 10573.0000 1.0000
80.7000 10653.0000 1.0000
80.7200 10619.0000 1.0000
80.7400 10571.0000 1.0000
80.7600 10450.0000 1.0000
80.7800 10439.0000 1.0000
80.8000 10509.0000 1.0000
80.8200 10543.0000 1.0000
80.8400 10462.0000 1.0000
80.8600 10479.0000 1.0000
80.8800 10236.0000 1.0000
80.9000 10412.0000 1.0000
80.9200 10470.0000 1.0000
80.9400 10404.0000 1.0000
80.9600 10303.0000 1.0000
80.9800 10250.0000 1.0000
81.0000 10274.0000 1.0000
81.0200 10203.0000 1.0000
81.0400 10063.0000 1.0000
81.0600 10370.0000 1.0000
81.0800 10189.0000 1.0000
81.1000 10340.0000 1.0000
81.1200 10387.0000 1.0000
81.1400 10391.0000 1.0000
81.1600 10484.0000 1.0000
81.1800 10525.0000 1.0000
81.2000 10501.0000 1.0000
81.2200 10394.0000 1.0000
81.2400 10187.0000 1.0000
81.2600 10259.0000 1.0000
81.2800 10285.0000 1.0000
81.3000 10042.0000 1.0000
81.3200 10162.0000 1.0000
81.3400 10085.0000 1.0000
81.3600 9951.0000 1.0000
81.3800 10243.0000 1.0000
81.4000 10363.0000 1.0000
81.4200 10381.0000 1.0000
81.4400 10488.0000 1.0000
81.4600 10740.0000 1.0000
81.4800 11184.0000 1.0000
81.5000 10695.0000 1.0000
81.5200 10521.0000 1.0000
81.5400 10346.0000 1.0000
81.5600 10137.0000 1.0000
81.5800 10136.0000 1.0000
81.6000 9993.0000 1.0000
81.6200 10092.0000 1.0000
81.6400 10202.0000 1.0000
81.6600 10184.0000 1.0000
81.6800 9994.0000 1.0000
81.7000 10231.0000 1.0000
81.7200 10282.0000 1.0000
81.7400 10315.0000 1.0000
81.7600 10282.0000 1.0000
81.7800 10180.0000 1.0000
81.8000 9967.0000 1.0000
81.8200 9988.0000 1.0000
81.8400 9982.0000 1.0000
81.8600 10051.0000 1.0000
81.8800 9770.0000 1.0000
81.9000 9859.0000 1.0000
81.9200 9876.0000 1.0000
81.9400 9988.0000 1.0000
81.9600 9769.0000 1.0000
81.9800 9896.0000 1.0000
82.0000 9792.0000 1.0000
82.0200 9764.0000 1.0000
82.0400 10120.0000 1.0000
82.0600 9975.0000 1.0000
82.0800 9957.0000 1.0000
82.1000 9808.0000 1.0000
82.1200 9797.0000 1.0000
82.1400 10031.0000 1.0000
82.1600 9778.0000 1.0000
82.1800 9906.0000 1.0000
82.2000 9883.0000 1.0000
82.2200 9883.0000 1.0000
82.2400 9906.0000 1.0000
82.2600 9961.0000 1.0000
82.2800 9942.0000 1.0000
82.3000 9873.0000 1.0000
82.3200 9945.0000 1.0000
82.3400 9964.0000 1.0000
82.3600 9885.0000 1.0000
82.3800 9811.0000 1.0000
82.4000 9718.0000 1.0000
82.4200 10020.0000 1.0000
82.4400 9894.0000 1.0000
82.4600 9990.0000 1.0000
82.4800 9885.0000 1.0000
82.5000 9890.0000 1.0000
82.5200 9931.0000 1.0000
82.5400 9836.0000 1.0000
82.5600 9932.0000 1.0000
82.5800 9848.0000 1.0000
82.6000 9893.0000 1.0000
82.6200 9775.0000 1.0000
82.6400 9985.0000 1.0000
82.6600 9855.0000 1.0000
82.6800 9841.0000 1.0000
82.7000 9866.0000 1.0000
82.7200 9969.0000 1.0000
82.7400 9942.0000 1.0000
82.7600 10044.0000 1.0000
82.7800 10100.0000 1.0000
82.8000 9874.0000 1.0000
82.8200 10083.0000 1.0000
82.8400 10160.0000 1.0000
82.8600 10186.0000 1.0000
82.8800 10149.0000 1.0000
82.9000 10445.0000 1.0000
82.9200 10341.0000 1.0000
82.9400 10460.0000 1.0000
82.9600 10621.0000 1.0000
82.9800 10549.0000 1.0000
83.0000 10353.0000 1.0000
83.0200 10642.0000 1.0000
83.0400 10246.0000 1.0000
83.0600 10180.0000 1.0000
83.0800 10043.0000 1.0000
83.1000 10147.0000 1.0000
83.1200 10099.0000 1.0000
83.1400 10261.0000 1.0000
83.1600 10138.0000 1.0000
83.1800 10127.0000 1.0000
83.2000 10203.0000 1.0000
83.2200 10259.0000 1.0000
83.2400 10258.0000 1.0000
83.2600 10191.0000 1.0000
83.2800 10206.0000 1.0000
83.3000 10085.0000 1.0000
83.3200 9968.0000 1.0000
83.3400 9987.0000 1.0000
83.3600 10061.0000 1.0000
83.3800 10053.0000 1.0000
83.4000 9922.0000 1.0000
83.4200 10129.0000 1.0000
83.4400 9919.0000 1.0000
83.4600 9923.0000 1.0000
83.4800 9898.0000 1.0000
83.5000 9828.0000 1.0000
83.5200 9885.0000 1.0000
83.5400 9775.0000 1.0000
83.5600 10002.0000 1.0000
83.5800 9884.0000 1.0000
83.6000 9743.0000 1.0000
83.6200 9995.0000 1.0000
83.6400 9891.0000 1.0000
83.6600 9831.0000 1.0000
83.6800 9925.0000 1.0000
83.7000 10015.0000 1.0000
83.7200 9960.0000 1.0000
83.7400 10072.0000 1.0000
83.7600 10205.0000 1.0000
83.7800 10113.0000 1.0000
83.8000 10370.0000 1.0000
83.8200 10316.0000 1.0000
83.8400 10380.0000 1.0000
83.8600 10282.0000 1.0000
83.8800 10288.0000 1.0000
83.9000 10107.0000 1.0000
83.9200 10172.0000 1.0000
83.9400 10069.0000 1.0000
83.9600 9807.0000 1.0000
83.9800 9848.0000 1.0000
84.0000 10060.0000 1.0000
84.0200 10057.0000 1.0000
84.0400 10117.0000 1.0000
84.0600 10064.0000 1.0000
84.0800 10184.0000 1.0000
84.1000 10246.0000 1.0000
84.1200 10236.0000 1.0000
84.1400 10083.0000 1.0000
84.1600 10033.0000 1.0000
84.1800 9993.0000 1.0000
84.2000 10030.0000 1.0000
84.2200 9987.0000 1.0000
84.2400 9908.0000 1.0000
84.2600 10058.0000 1.0000
84.2800 9813.0000 1.0000
84.3000 9946.0000 1.0000
84.3200 10089.0000 1.0000
84.3400 10080.0000 1.0000
84.3600 10137.0000 1.0000
84.3800 10196.0000 1.0000
84.4000 9930.0000 1.0000
84.4200 9943.0000 1.0000
84.4400 9892.0000 1.0000
84.4600 9910.0000 1.0000
84.4800 9852.0000 1.0000
84.5000 9963.0000 1.0000
84.5200 10105.0000 1.0000
84.5400 9918.0000 1.0000
84.5600 9942.0000 1.0000
84.5800 9982.0000 1.0000
84.6000 9874.0000 1.0000
84.6200 9941.0000 1.0000
84.6400 9881.0000 1.0000
84.6600 9906.0000 1.0000
84.6800 9980.0000 1.0000
84.7000 9927.0000 1.0000
84.7200 10086.0000 1.0000
84.7400 10043.0000 1.0000
84.7600 10045.0000 1.0000
84.7800 10185.0000 1.0000
84.8000 10362.0000 1.0000
84.8200 10563.0000 1.0000
84.8400 10405.0000 1.0000
84.8600 10437.0000 1.0000
84.8800 10616.0000 1.0000
84.9000 10642.0000 1.0000
84.9200 10829.0000 1.0000
84.9400 10884.0000 1.0000
84.9600 10822.0000 1.0000
84.9800 10959.0000 1.0000
85.0000 10691.0000 1.0000
85.0200 10420.0000 1.0000
85.0400 10479.0000 1.0000
85.0600 10455.0000 1.0000
85.0800 10292.0000 1.0000
85.1000 10306.0000 1.0000
85.1200 10326.0000 1.0000
85.1400 10297.0000 1.0000
85.1600 10572.0000 1.0000
85.1800 10510.0000 1.0000
85.2000 10452.0000 1.0000
85.2200 10536.0000 1.0000
85.2400 10350.0000 1.0000
85.2600 10387.0000 1.0000
85.2800 10113.0000 1.0000
85.3000 10068.0000 1.0000
85.3200 9942.0000 1.0000
85.3400 9942.0000 1.0000
85.3600 10081.0000 1.0000
85.3800 9972.0000 1.0000
85.4000 10034.0000 1.0000
85.4200 9951.0000 1.0000
85.4400 9936.0000 1.0000
85.4600 9997.0000 1.0000
85.4800 9844.0000 1.0000
85.5000 9986.0000 1.0000
85.5200 9798.0000 1.0000
85.5400 9822.0000 1.0000
85.5600 9946.0000 1.0000
85.5800 9925.0000 1.0000
85.6000 9903.0000 1.0000
85.6200 9792.0000 1.0000
85.6400 9929.0000 1.0000
85.6600 9925.0000 1.0000
85.6800 10082.0000 1.0000
85.7000 9893.0000 1.0000
85.7200 9761.0000 1.0000
85.7400 9915.0000 1.0000
85.7600 9813.0000 1.0000
85.7800 9842.0000 1.0000
85.8000 9876.0000 1.0000
85.8200 9879.0000 1.0000
85.8400 9869.0000 1.0000
85.8600 9878.0000 1.0000
85.8800 9800.0000 1.0000
85.9000 9998.0000 1.0000
85.9200 9946.0000 1.0000
85.9400 9809.0000 1.0000
85.9600 9862.0000 1.0000
85.9800 9868.0000 1.0000
86.0000 9944.0000 1.0000
86.0200 9863.0000 1.0000
86.0400 9807.0000 1.0000
86.0600 9935.0000 1.0000
86.0800 9962.0000 1.0000
86.1000 9896.0000 1.0000
86.1200 9850.0000 1.0000
86.1400 9750.0000 1.0000
86.1600 10129.0000 1.0000
86.1800 9905.0000 1.0000
86.2000 9827.0000 1.0000
86.2200 9788.0000 1.0000
86.2400 9872.0000 1.0000
86.2600 9800.0000 1.0000
86.2800 9860.0000 1.0000
86.3000 9916.0000 1.0000
86.3200 9998.0000 1.0000
86.3400 9962.0000 1.0000
86.3600 10012.0000 1.0000
86.3800 9898.0000 1.0000
86.4000 9945.0000 1.0000
86.4200 10085.0000 1.0000
86.4400 9832.0000 1.0000
86.4600 9907.0000 1.0000
86.4800 9939.0000 1.0000
86.5000 9939.0000 1.0000
86.5200 9849.0000 1.0000
86.5400 9827.0000 1.0000
86.5600 9907.0000 1.0000
86.5800 9913.0000 1.0000
86.6000 9889.0000 1.0000
86.6200 9957.0000 1.0000
86.6400 9900.0000 1.0000
86.6600 10080.0000 1.0000
86.6800 9897.0000 1.0000
86.7000 9879.0000 1.0000
86.7200 9772.0000 1.0000
86.7400 9780.0000 1.0000
86.7600 9962.0000 1.0000
86.7800 9894.0000 1.0000
86.8000 9787.0000 1.0000
86.8200 9940.0000 1.0000
86.8400 9871.0000 1.0000
86.8600 9911.0000 1.0000
86.8800 9874.0000 1.0000
86.9000 9851.0000 1.0000
86.9200 9888.0000 1.0000
86.9400 9846.0000 1.0000
86.9600 9866.0000 1.0000
86.9800 9863.0000 1.0000
87.0000 9882.0000 1.0000
87.0200 9762.0000 1.0000
87.0400 9840.0000 1.0000
87.0600 10051.0000 1.0000
87.0800 9840.0000 1.0000
87.1000 9974.0000 1.0000
87.1200 9946.0000 1.0000
87.1400 9761.0000 1.0000
87.1600 9729.0000 1.0000
87.1800 9950.0000 1.0000
87.2000 9766.0000 1.0000
87.2200 9930.0000 1.0000
87.2400 9790.0000 1.0000
87.2600 9747.0000 1.0000
87.2800 9850.0000 1.0000
87.3000 9877.0000 1.0000
87.3200 9797.0000 1.0000
87.3400 9780.0000 1.0000
87.3600 9726.0000 1.0000
87.3800 9709.0000 1.0000
87.4000 9837.0000 1.0000
87.4200 9896.0000 1.0000
87.4400 9812.0000 1.0000
87.4600 9811.0000 1.0000
87.4800 9885.0000 1.0000
87.5000 10094.0000 1.0000
87.5200 10037.0000 1.0000
87.5400 9785.0000 1.0000
87.5600 9859.0000 1.0000
87.5800 9833.0000 1.0000
87.6000 9885.0000 1.0000
87.6200 9758.0000 1.0000
87.6400 9809.0000 1.0000
87.6600 9846.0000 1.0000
87.6800 9904.0000 1.0000
87.7000 9958.0000 1.0000
87.7200 9830.0000 1.0000
87.7400 9686.0000 1.0000
87.7600 9828.0000 1.0000
87.7800 9812.0000 1.0000
87.8000 9604.0000 1.0000
87.8200 9643.0000 1.0000
87.8400 9695.0000 1.0000
87.8600 9958.0000 1.0000
87.8800 9864.0000 1.0000
87.9000 9820.0000 1.0000
87.9200 9842.0000 1.0000
87.9400 9877.0000 1.0000
87.9600 9982.0000 1.0000
87.9800 9818.0000 1.0000
88.0000 9876.0000 1.0000
88.0200 9721.0000 1.0000
88.0400 9710.0000 1.0000
88.0600 9937.0000 1.0000
88.0800 9765.0000 1.0000
88.1000 9825.0000 1.0000
88.1200 9902.0000 1.0000
88.1400 9804.0000 1.0000
88.1600 9935.0000 1.0000
88.1800 9844.0000 1.0000
88.2000 9759.0000 1.0000
88.2200 9831.0000 1.0000
88.2400 9899.0000 1.0000
88.2600 9949.0000 1.0000
88.2800 9867.0000 1.0000
88.3000 9855.0000 1.0000
88.3200 9925.0000 1.0000
88.3400 10002.0000 1.0000
88.3600 9945.0000 1.0000
88.3800 10117.0000 1.0000
88.4000 10099.0000 1.0000
88.4200 10131.0000 1.0000
88.4400 10219.0000 1.0000
88.4600 10320.0000 1.0000
88.4800 10388.0000 1.0000
88.5000 10413.0000 1.0000
88.5200 10641.0000 1.0000
88.5400 10604.0000 1.0000
88.5600 10825.0000 1.0000
88.5800 10909.0000 1.0000
88.6000 10660.0000 1.0000
88.6200 10573.0000 1.0000
88.6400 10432.0000 1.0000
88.6600 10336.0000 1.0000
88.6800 10310.0000 1.0000
88.7000 10151.0000 1.0000
88.7200 10108.0000 1.0000
88.7400 10358.0000 1.0000
88.7600 10269.0000 1.0000
88.7800 10195.0000 1.0000
88.8000 10327.0000 1.0000
88.8200 10409.0000 1.0000
88.8400 10415.0000 1.0000
88.8600 10200.0000 1.0000
88.8800 10313.0000 1.0000
88.9000 10335.0000 1.0000
88.9200 10126.0000 1.0000
88.9400 10180.0000 1.0000
88.9600 10175.0000 1.0000
88.9800 10304.0000 1.0000
89.0000 10088.0000 1.0000
89.0200 10049.0000 1.0000
89.0400 10066.0000 1.0000
89.0600 10036.0000 1.0000
89.0800 10019.0000 1.0000
89.1000 9924.0000 1.0000
89.1200 9937.0000 1.0000
89.1400 9905.0000 1.0000
89.1600 9851.0000 1.0000
89.1800 9870.0000 1.0000
89.2000 10072.0000 1.0000
89.2200 10014.0000 1.0000
89.2400 9886.0000 1.0000
89.2600 9957.0000 1.0000
89.2800 9957.0000 1.0000
89.3000 9858.0000 1.0000
89.3200 9630.0000 1.0000
89.3400 9853.0000 1.0000
89.3600 9764.0000 1.0000
89.3800 9739.0000 1.0000
89.4000 9878.0000 1.0000
89.4200 9899.0000 1.0000
89.4400 9981.0000 1.0000
89.4600 9974.0000 1.0000
89.4800 9979.0000 1.0000
89.5000 9865.0000 1.0000
89.5200 9820.0000 1.0000
89.5400 9756.0000 1.0000
89.5600 9762.0000 1.0000
89.5800 9914.0000 1.0000
89.6000 9918.0000 1.0000
89.6200 9935.0000 1.0000
89.6400 9848.0000 1.0000
89.6600 9976.0000 1.0000
89.6800 9941.0000 1.0000
89.7000 9958.0000 1.0000
89.7200 9967.0000 1.0000
89.7400 9937.0000 1.0000
89.7600 9899.0000 1.0000
89.7800 9925.0000 1.0000
89.8000 9795.0000 1.0000
89.8200 9814.0000 1.0000
89.8400 9995.0000 1.0000
89.8600 9998.0000 1.0000
89.8800 9970.0000 1.0000
89.9000 10057.0000 1.0000
89.9200 9850.0000 1.0000
89.9400 9941.0000 1.0000
89.9600 10071.0000 1.0000
89.9800 9935.0000 1.0000
90.0000 9954.0000 1.0000
*RAS_INT_END
*RAS_TEMPERATURE_START
*RAS_TEMPERATURE_END
*RAS_DATA_END
