*RAS_DATA_START
*RAS_HEADER_START
*DISP_FMT_X "%.2f"
*DISP_FMT_Y "%.0f"
*DISP_FULLSCALE "60749.0000000000"
*DISP_LINE_COLOR "255.0000000000"
*DISP_LINE_STYLE "0.0000000000"
*DISP_LINE_WIDTH "0.2500000000"
*DISP_NOTE "測定データ-3"
*DISP_OFFSET_Y "0.0000000000"
*DISP_PEAKSEARCH_UNIT_Y "cps"
*DISP_RANGE_BOTTOM "0.0000000000"
*DISP_RANGE_LEFT "20.0000000000"
*DISP_RANGE_LOGCUTOFF "0.0100000000"
*DISP_RANGE_RIGHT "90.0000000000"
*DISP_RANGE_TOP "60749.0000000000"
*DISP_SCALE_MODE_Y "0.0000000000"
*DISP_TAB_NAME "2θ/θ"
*DISP_TITLE_Y "強度"
*DISP_UNIT_Y "cps"
*DISP_WINDOW_NAME "MSG_MACROENGINE"
*FILE_COMMENT " "
*FILE_MD5 ""
*FILE_MEMO " "
*FILE_OPERATOR "Administrator"
*FILE_SAMPLE " "
*FILE_TYPE "RAS_RAW"
*FILE_USERGROUP "システムマネージャ"
*FILE_VERSION "1.0000000000"
*HW_ATTACHMENT_ID "ATT0025"
*HW_ATTACHMENT_NAME "標準|Standard"
*HW_COUNTER_ID-0 "CUT0025"
*HW_COUNTER_ID-1 "CUT0020"
*HW_COUNTER_ID-2 "CUT0020"
*HW_COUNTER_ID-3 "CSL0021"
*HW_COUNTER_ID-4 "CMC0021"
*HW_COUNTER_NAME-0 "D/teX Ultra|D/teX Ultra"
*HW_COUNTER_NAME-1 "None|None"
*HW_COUNTER_NAME-2 "None|None"
*HW_COUNTER_NAME-3 "BBM|BBM"
*HW_COUNTER_NAME-4 "検出器モノクロメータ|Detector monochromator"
*HW_COUNTER_SELECT_NAME "D/teX Ultra|D/teX Ultra"
*HW_GONIOMETER_ID "GON0023"
*HW_GONIOMETER_NAME "SmartLab|SmartLab"
*HW_GONIOMETER_RADIUS-0 "90.0"
*HW_GONIOMETER_RADIUS-1 "114.0"
*HW_GONIOMETER_RADIUS-2 "190.0"
*HW_GONIOMETER_RADIUS-3 "300.0"
*HW_GONIOMETER_RADIUS-4 "187.0"
*HW_GONIOMETER_RADIUS-5 "300.0"
*HW_GONIOMETER_RADIUS-6 "113.0"
*HW_GONIOMETER_RADIUS-7 "331.0"
*HW_I_OPT_ID-0 "CBO0021"
*HW_I_OPT_ID-1 "ICR0023"
*HW_I_OPT_ID-2 "ISL0021"
*HW_I_OPT_ID-3 "ISO0021"
*HW_I_OPT_ID-4 "IAD0021"
*HW_I_OPT_ID-5 "IPR0001"
*HW_I_OPT_NAME-0 "CBOユニット|CBO unit"
*HW_I_OPT_NAME-1 "標準入射光学ユニット|Standard incident optical unit"
*HW_I_OPT_NAME-2 "標準入射スリットボックス|Standard incident slit box"
*HW_I_OPT_NAME-3 "入射平行スリット|Incident parallel slit"
*HW_I_OPT_NAME-4 "長手制限スリット|Length limiting slit"
*HW_I_OPT_NAME-5 "None|None"
*HW_R_ATTENUATER_AUTOMODE "0"
*HW_R_OPT_ID-0 "RSS0021"
*HW_R_OPT_ID-1 "RCR0023"
*HW_R_OPT_ID-2 "RSO0021"
*HW_R_OPT_ID-3 "RRS0021"
*HW_R_OPT_ID-4 "ATN0021"
*HW_R_OPT_ID-5 "RFL0021"
*HW_R_OPT_ID-6 "RAD0021"
*HW_R_OPT_NAME-0 "標準受光スリットボックス1|Standard receiving slit box # 1"
*HW_R_OPT_NAME-1 "標準受光光学ユニット1|Standard receiving unit # 1"
*HW_R_OPT_NAME-2 "標準受光光学ユニット2|Standard receiving optical unit # 2"
*HW_R_OPT_NAME-3 "標準受光スリットボックス2|Standard receiving slit box # 2"
*HW_R_OPT_NAME-4 "標準アッテネータ|Standard Attenuator"
*HW_R_OPT_NAME-5 "Cu Kβ|Cu K-beta"
*HW_R_OPT_NAME-6 "調整用受光スリット|Alignment receiving slit"
*HW_SAMPLE_HOLDER_ID "SMP0023"
*HW_SAMPLE_HOLDER_NAME "標準Zステージ|Standard Z stage"
*HW_XG_CURRENT_MAX "50"
*HW_XG_CURRENT_MIN "2"
*HW_XG_CURRENT_RESOLUTION "2"
*HW_XG_CURRENT_UNIT "mA"
*HW_XG_FOCUS "1mm x 10mm"
*HW_XG_FOCUS_TYPE "Normal"
*HW_XG_ID ""
*HW_XG_NAME "3kW 封入管(ID:1200)|3kW Sealed tube(ID:1200)"
*HW_XG_TARGET_ATOMIC_NUMBER "29.0000000000"
*HW_XG_TARGET_NAME "Cu"
*HW_XG_TYPE "Hermetic"
*HW_XG_VOLTAGE_MAX "60"
*HW_XG_VOLTAGE_MIN "20"
*HW_XG_VOLTAGE_RESOLUTION "2"
*HW_XG_VOLTAGE_UNIT "kV"
*HW_XG_WATT_MAX "2"
*HW_XG_WATT_UNIT "kW"
*HW_XG_WAVE_LENGTH_ALPHA1 "1.540593"
*HW_XG_WAVE_LENGTH_ALPHA2 "1.544414"
*HW_XG_WAVE_LENGTH_BETA "1.392250"
*MEAS_COND_AXIS_NAME-0 "2θ/θ"
*MEAS_COND_AXIS_NAME-1 "2θ"
*MEAS_COND_AXIS_NAME-2 "ω"
*MEAS_COND_AXIS_NAME-3 "Z"
*MEAS_COND_AXIS_NAME-4 "2θ/ω"
*MEAS_COND_AXIS_NAME-5 "θs"
*MEAS_COND_AXIS_NAME-6 "θd"
*MEAS_COND_AXIS_NAME-7 "Ts"
*MEAS_COND_AXIS_NAME-8 "CBO選択スリット"
*MEAS_COND_AXIS_NAME-9 "M"
*MEAS_COND_AXIS_NAME-10 "入射平行スリット"
*MEAS_COND_AXIS_NAME-11 "入射スリット"
*MEAS_COND_AXIS_NAME-12 ""
*MEAS_COND_AXIS_NAME-13 "Zs"
*MEAS_COND_AXIS_NAME-14 "入射光学素子"
*MEAS_COND_AXIS_NAME-15 "長手制限スリット"
*MEAS_COND_AXIS_NAME-16 "センタースリット"
*MEAS_COND_AXIS_NAME-17 "フィルター"
*MEAS_COND_AXIS_NAME-18 "受光スリット1"
*MEAS_COND_AXIS_NAME-19 "受光スリット2"
*MEAS_COND_AXIS_NAME-20 "受光光学素子"
*MEAS_COND_AXIS_NAME-21 "受光平行スリット"
*MEAS_COND_AXIS_NAME-22 "調整用受光スリット"
*MEAS_COND_AXIS_NAME-23 ""
*MEAS_COND_AXIS_NAME-24 ""
*MEAS_COND_AXIS_NAME-25 "Zd"
*MEAS_COND_AXIS_NAME-26 "アッテネータ"
*MEAS_COND_AXIS_NAME-27 "検出器モノクロメータ"
*MEAS_COND_AXIS_NAME-28 "モノクロメータスリット"
*MEAS_COND_AXIS_NAME-29 "プライマリビーム"
*MEAS_COND_AXIS_NAME-30 "PHA"
*MEAS_COND_AXIS_NAME_INTERNAL-0 "TwoThetaTheta"
*MEAS_COND_AXIS_NAME_INTERNAL-1 "TwoTheta"
*MEAS_COND_AXIS_NAME_INTERNAL-2 "Omega"
*MEAS_COND_AXIS_NAME_INTERNAL-3 "Z"
*MEAS_COND_AXIS_NAME_INTERNAL-4 "TwoThetaOmega"
*MEAS_COND_AXIS_NAME_INTERNAL-5 "ThetaS"
*MEAS_COND_AXIS_NAME_INTERNAL-6 "ThetaD"
*MEAS_COND_AXIS_NAME_INTERNAL-7 "Ts"
*MEAS_COND_AXIS_NAME_INTERNAL-8 "CBO"
*MEAS_COND_AXIS_NAME_INTERNAL-9 "CBO-M"
*MEAS_COND_AXIS_NAME_INTERNAL-10 "IncidentSollerSlit"
*MEAS_COND_AXIS_NAME_INTERNAL-11 "IncidentSlitBox"
*MEAS_COND_AXIS_NAME_INTERNAL-12 "IncidentSlitBox-_Axis"
*MEAS_COND_AXIS_NAME_INTERNAL-13 "Zs"
*MEAS_COND_AXIS_NAME_INTERNAL-14 "IncidentMonochromator"
*MEAS_COND_AXIS_NAME_INTERNAL-15 "IncidentAxdSlit"
*MEAS_COND_AXIS_NAME_INTERNAL-16 "CenterSlit"
*MEAS_COND_AXIS_NAME_INTERNAL-17 "Filter"
*MEAS_COND_AXIS_NAME_INTERNAL-18 "ReceivingSlitBox1"
*MEAS_COND_AXIS_NAME_INTERNAL-19 "ReceivingSlitBox2"
*MEAS_COND_AXIS_NAME_INTERNAL-20 "ReceivingOptics"
*MEAS_COND_AXIS_NAME_INTERNAL-21 "ReceivingSollerSlit"
*MEAS_COND_AXIS_NAME_INTERNAL-22 "ReceivingAxdSlit"
*MEAS_COND_AXIS_NAME_INTERNAL-23 "ReceivingSlitBox1-_Axis"
*MEAS_COND_AXIS_NAME_INTERNAL-24 "ReceivingSlitBox2-_Axis"
*MEAS_COND_AXIS_NAME_INTERNAL-25 "ReceivingSlitBox2-Zd"
*MEAS_COND_AXIS_NAME_INTERNAL-26 "Attenuator"
*MEAS_COND_AXIS_NAME_INTERNAL-27 "CounterMonochromator"
*MEAS_COND_AXIS_NAME_INTERNAL-28 "CounterSlit"
*MEAS_COND_AXIS_NAME_INTERNAL-29 "IncidentPrimary"
*MEAS_COND_AXIS_NAME_INTERNAL-30 "PHA"
*MEAS_COND_AXIS_NAME_MAGICNO-0 "83951616.0000000000"
*MEAS_COND_AXIS_NAME_MAGICNO-1 "268632064.0000000000"
*MEAS_COND_AXIS_NAME_MAGICNO-2 "268500992.0000000000"
*MEAS_COND_AXIS_NAME_MAGICNO-3 "285278208.0000000000"
*MEAS_COND_AXIS_NAME_MAGICNO-4 "83951616.0000000000"
*MEAS_COND_AXIS_NAME_MAGICNO-5 "131072.0000000000"
*MEAS_COND_AXIS_NAME_MAGICNO-6 "131072.0000000000"
*MEAS_COND_AXIS_NAME_MAGICNO-7 "318898176.0000000000"
*MEAS_COND_AXIS_NAME_MAGICNO-8 "20971521.0000000000"
*MEAS_COND_AXIS_NAME_MAGICNO-9 "285343744.0000000000"
*MEAS_COND_AXIS_NAME_MAGICNO-10 "20971521.0000000000"
*MEAS_COND_AXIS_NAME_MAGICNO-11 "22020097.0000000000"
*MEAS_COND_AXIS_NAME_MAGICNO-12 "25165824.0000000000"
*MEAS_COND_AXIS_NAME_MAGICNO-13 "318898176.0000000000"
*MEAS_COND_AXIS_NAME_MAGICNO-14 "1.0000000000"
*MEAS_COND_AXIS_NAME_MAGICNO-15 "20971521.0000000000"
*MEAS_COND_AXIS_NAME_MAGICNO-16 "20971521.0000000000"
*MEAS_COND_AXIS_NAME_MAGICNO-17 "20971521.0000000000"
*MEAS_COND_AXIS_NAME_MAGICNO-18 "23068673.0000000000"
*MEAS_COND_AXIS_NAME_MAGICNO-19 "23068673.0000000000"
*MEAS_COND_AXIS_NAME_MAGICNO-20 "20971521.0000000000"
*MEAS_COND_AXIS_NAME_MAGICNO-21 "20971521.0000000000"
*MEAS_COND_AXIS_NAME_MAGICNO-22 "20971521.0000000000"
*MEAS_COND_AXIS_NAME_MAGICNO-23 "25165824.0000000000"
*MEAS_COND_AXIS_NAME_MAGICNO-24 "25165824.0000000000"
*MEAS_COND_AXIS_NAME_MAGICNO-25 "285343744.0000000000"
*MEAS_COND_AXIS_NAME_MAGICNO-26 "17301505.0000000000"
*MEAS_COND_AXIS_NAME_MAGICNO-27 "20971521.0000000000"
*MEAS_COND_AXIS_NAME_MAGICNO-28 "20971521.0000000000"
*MEAS_COND_AXIS_NAME_MAGICNO-29 "20971521.0000000000"
*MEAS_COND_AXIS_NAME_MAGICNO-30 "0.0000000000"
*MEAS_COND_AXIS_OFFSET-0 "-"
*MEAS_COND_AXIS_OFFSET-1 "-0.1081000000"
*MEAS_COND_AXIS_OFFSET-2 "0.3758000000"
*MEAS_COND_AXIS_OFFSET-3 "-"
*MEAS_COND_AXIS_OFFSET-4 "-"
*MEAS_COND_AXIS_OFFSET-5 "0.3758000000"
*MEAS_COND_AXIS_OFFSET-6 "-0.4839000000"
*MEAS_COND_AXIS_OFFSET-7 "-"
*MEAS_COND_AXIS_OFFSET-8 "-"
*MEAS_COND_AXIS_OFFSET-9 "-"
*MEAS_COND_AXIS_OFFSET-10 "-"
*MEAS_COND_AXIS_OFFSET-11 "-"
*MEAS_COND_AXIS_OFFSET-12 "-"
*MEAS_COND_AXIS_OFFSET-13 "-"
*MEAS_COND_AXIS_OFFSET-14 "-"
*MEAS_COND_AXIS_OFFSET-15 "-"
*MEAS_COND_AXIS_OFFSET-16 "-"
*MEAS_COND_AXIS_OFFSET-17 "-"
*MEAS_COND_AXIS_OFFSET-18 "-"
*MEAS_COND_AXIS_OFFSET-19 "-"
*MEAS_COND_AXIS_OFFSET-20 "-"
*MEAS_COND_AXIS_OFFSET-21 "-"
*MEAS_COND_AXIS_OFFSET-22 "-"
*MEAS_COND_AXIS_OFFSET-23 "-"
*MEAS_COND_AXIS_OFFSET-24 "-"
*MEAS_COND_AXIS_OFFSET-25 "-"
*MEAS_COND_AXIS_OFFSET-26 "-"
*MEAS_COND_AXIS_OFFSET-27 "-"
*MEAS_COND_AXIS_OFFSET-28 "-"
*MEAS_COND_AXIS_OFFSET-29 "-"
*MEAS_COND_AXIS_OFFSET-30 "-"
*MEAS_COND_AXIS_POSITION-0 "0.0000000000"
*MEAS_COND_AXIS_POSITION-1 "0.0000000000"
*MEAS_COND_AXIS_POSITION-2 "0.0000000000"
*MEAS_COND_AXIS_POSITION-3 "-0.5500000000"
*MEAS_COND_AXIS_POSITION-4 "0.0000000000"
*MEAS_COND_AXIS_POSITION-5 "0.0000000000"
*MEAS_COND_AXIS_POSITION-6 "0.0000000000"
*MEAS_COND_AXIS_POSITION-7 "-0.4278800000"
*MEAS_COND_AXIS_POSITION-8 "BB"
*MEAS_COND_AXIS_POSITION-9 "0.0000000000"
*MEAS_COND_AXIS_POSITION-10 "Soller_slit_5.0deg"
*MEAS_COND_AXIS_POSITION-11 "2/3deg"
*MEAS_COND_AXIS_POSITION-12 "2.2088000000"
*MEAS_COND_AXIS_POSITION-13 "-0.4140600000"
*MEAS_COND_AXIS_POSITION-14 "0.0000000000"
*MEAS_COND_AXIS_POSITION-15 "10.0mm"
*MEAS_COND_AXIS_POSITION-16 "None"
*MEAS_COND_AXIS_POSITION-17 "Cu_K-beta"
*MEAS_COND_AXIS_POSITION-18 "13.000mm"
*MEAS_COND_AXIS_POSITION-19 "13.000mm"
*MEAS_COND_AXIS_POSITION-20 "No_unit"
*MEAS_COND_AXIS_POSITION-21 "Soller_slit_5.0deg"
*MEAS_COND_AXIS_POSITION-22 "None"
*MEAS_COND_AXIS_POSITION-23 "13.0000000000"
*MEAS_COND_AXIS_POSITION-24 "13.0000000000"
*MEAS_COND_AXIS_POSITION-25 "0.0109400000"
*MEAS_COND_AXIS_POSITION-26 "Open"
*MEAS_COND_AXIS_POSITION-27 "None"
*MEAS_COND_AXIS_POSITION-28 "None"
*MEAS_COND_AXIS_POSITION-29 "None"
*MEAS_COND_AXIS_POSITION-30 "38.0000000000"
*MEAS_COND_AXIS_UNIT-0 "deg"
*MEAS_COND_AXIS_UNIT-1 "deg"
*MEAS_COND_AXIS_UNIT-2 "deg"
*MEAS_COND_AXIS_UNIT-3 "mm"
*MEAS_COND_AXIS_UNIT-4 "deg"
*MEAS_COND_AXIS_UNIT-5 "deg"
*MEAS_COND_AXIS_UNIT-6 "deg"
*MEAS_COND_AXIS_UNIT-7 "mm"
*MEAS_COND_AXIS_UNIT-8 ""
*MEAS_COND_AXIS_UNIT-9 "pulse"
*MEAS_COND_AXIS_UNIT-10 ""
*MEAS_COND_AXIS_UNIT-11 ""
*MEAS_COND_AXIS_UNIT-12 "mm"
*MEAS_COND_AXIS_UNIT-13 "mm"
*MEAS_COND_AXIS_UNIT-14 ""
*MEAS_COND_AXIS_UNIT-15 ""
*MEAS_COND_AXIS_UNIT-16 ""
*MEAS_COND_AXIS_UNIT-17 ""
*MEAS_COND_AXIS_UNIT-18 ""
*MEAS_COND_AXIS_UNIT-19 ""
*MEAS_COND_AXIS_UNIT-20 ""
*MEAS_COND_AXIS_UNIT-21 ""
*MEAS_COND_AXIS_UNIT-22 ""
*MEAS_COND_AXIS_UNIT-23 "mm"
*MEAS_COND_AXIS_UNIT-24 "mm"
*MEAS_COND_AXIS_UNIT-25 "mm"
*MEAS_COND_AXIS_UNIT-26 ""
*MEAS_COND_AXIS_UNIT-27 ""
*MEAS_COND_AXIS_UNIT-28 ""
*MEAS_COND_AXIS_UNIT-29 ""
*MEAS_COND_AXIS_UNIT-30 "div"
*MEAS_COND_COUNTER_CNTLOSS_CORR "0.0000000000"
*MEAS_COND_COUNTER_PHABASE "38.0000000000"
*MEAS_COND_COUNTER_PHAWINDOW "16.0000000000"
*MEAS_COND_COUNTER_PHA_UNIT "div"
*MEAS_COND_COUNTER_TAUDIFF "30.0000000000"
*MEAS_COND_COUNTER_TAUINT "0.0000000000"
*MEAS_COND_IRRADIATION_MODE "OFF"
*MEAS_COND_IRRADIATION_WIDTH ""
*MEAS_COND_OPT_ATTR "集中法"
*MEAS_COND_OPT_NAME "@集中法"
*MEAS_COND_UNSYMMETRIC_MODE "OFF"
*MEAS_COND_XG_CURRENT "30.0000000000"
*MEAS_COND_XG_VOLTAGE "40.0000000000"
*MEAS_COND_XG_WAVE_TYPE "Ka"
*MEAS_DATA_COUNT "3501.0000000000"
*MEAS_SCAN_AXIS_X "2θ/θ"
*MEAS_SCAN_AXIS_X_INTERNAL "TwoThetaTheta"
*MEAS_SCAN_END_TIME "08/19/20 16:56:25"
*MEAS_SCAN_MODE "CONTINUOUS"
*MEAS_SCAN_MONITOR "0"
*MEAS_SCAN_RESOLUTION_X "0.0002"
*MEAS_SCAN_SPEED "1.0"
*MEAS_SCAN_SPEED_UNIT "deg/min"
*MEAS_SCAN_START "20.0000000000"
*MEAS_SCAN_START_TIME "08/19/20 15:43:30"
*MEAS_SCAN_STEP "0.0200000000"
*MEAS_SCAN_STOP "90.0000000000"
*MEAS_SCAN_UNIT_X "deg"
*MEAS_SCAN_UNIT_Y "counts"
*RAS_HEADER_END
*RAS_INT_START
20.0000 11024.0000 1.0000
20.0200 11139.0000 1.0000
20.0400 11106.0000 1.0000
20.0600 11172.0000 1.0000
20.0800 11117.0000 1.0000
20.1000 11043.0000 1.0000
20.1200 11079.0000 1.0000
20.1400 11088.0000 1.0000
20.1600 11141.0000 1.0000
20.1800 11175.0000 1.0000
20.2000 11228.0000 1.0000
20.2200 11169.0000 1.0000
20.2400 11160.0000 1.0000
20.2600 10991.0000 1.0000
20.2800 11028.0000 1.0000
20.3000 11173.0000 1.0000
20.3200 11240.0000 1.0000
20.3400 11160.0000 1.0000
20.3600 11311.0000 1.0000
20.3800 11068.0000 1.0000
20.4000 11130.0000 1.0000
20.4200 11456.0000 1.0000
20.4400 11094.0000 1.0000
20.4600 11259.0000 1.0000
20.4800 11095.0000 1.0000
20.5000 11239.0000 1.0000
20.5200 11291.0000 1.0000
20.5400 11349.0000 1.0000
20.5600 11375.0000 1.0000
20.5800 11547.0000 1.0000
20.6000 11505.0000 1.0000
20.6200 11737.0000 1.0000
20.6400 11728.0000 1.0000
20.6600 12053.0000 1.0000
20.6800 11972.0000 1.0000
20.7000 12566.0000 1.0000
20.7200 13178.0000 1.0000
20.7400 13494.0000 1.0000
20.7600 13958.0000 1.0000
20.7800 14673.0000 1.0000
20.8000 15381.0000 1.0000
20.8200 16962.0000 1.0000
20.8400 19007.0000 1.0000
20.8600 19237.0000 1.0000
20.8800 17842.0000 1.0000
20.9000 16313.0000 1.0000
20.9200 14733.0000 1.0000
20.9400 13027.0000 1.0000
20.9600 12059.0000 1.0000
20.9800 11678.0000 1.0000
21.0000 11501.0000 1.0000
21.0200 11563.0000 1.0000
21.0400 11564.0000 1.0000
21.0600 11239.0000 1.0000
21.0800 11225.0000 1.0000
21.1000 11617.0000 1.0000
21.1200 11241.0000 1.0000
21.1400 11327.0000 1.0000
21.1600 11135.0000 1.0000
21.1800 11234.0000 1.0000
21.2000 11227.0000 1.0000
21.2200 11353.0000 1.0000
21.2400 11191.0000 1.0000
21.2600 11197.0000 1.0000
21.2800 11283.0000 1.0000
21.3000 11260.0000 1.0000
21.3200 11295.0000 1.0000
21.3400 11321.0000 1.0000
21.3600 11241.0000 1.0000
21.3800 11218.0000 1.0000
21.4000 11252.0000 1.0000
21.4200 11251.0000 1.0000
21.4400 11286.0000 1.0000
21.4600 11149.0000 1.0000
21.4800 11250.0000 1.0000
21.5000 11110.0000 1.0000
21.5200 11035.0000 1.0000
21.5400 11225.0000 1.0000
21.5600 11219.0000 1.0000
21.5800 11257.0000 1.0000
21.6000 11279.0000 1.0000
21.6200 11359.0000 1.0000
21.6400 11174.0000 1.0000
21.6600 11249.0000 1.0000
21.6800 11349.0000 1.0000
21.7000 11205.0000 1.0000
21.7200 11305.0000 1.0000
21.7400 11158.0000 1.0000
21.7600 11227.0000 1.0000
21.7800 11148.0000 1.0000
21.8000 11194.0000 1.0000
21.8200 11137.0000 1.0000
21.8400 11120.0000 1.0000
21.8600 11252.0000 1.0000
21.8800 11193.0000 1.0000
21.9000 11083.0000 1.0000
21.9200 11271.0000 1.0000
21.9400 11352.0000 1.0000
21.9600 11102.0000 1.0000
21.9800 11115.0000 1.0000
22.0000 11090.0000 1.0000
22.0200 11208.0000 1.0000
22.0400 11157.0000 1.0000
22.0600 11340.0000 1.0000
22.0800 11285.0000 1.0000
22.1000 11132.0000 1.0000
22.1200 11190.0000 1.0000
22.1400 11242.0000 1.0000
22.1600 11255.0000 1.0000
22.1800 11040.0000 1.0000
22.2000 11100.0000 1.0000
22.2200 11076.0000 1.0000
22.2400 11215.0000 1.0000
22.2600 11201.0000 1.0000
22.2800 11152.0000 1.0000
22.3000 11177.0000 1.0000
22.3200 11224.0000 1.0000
22.3400 11190.0000 1.0000
22.3600 11238.0000 1.0000
22.3800 11116.0000 1.0000
22.4000 11336.0000 1.0000
22.4200 11234.0000 1.0000
22.4400 11099.0000 1.0000
22.4600 11314.0000 1.0000
22.4800 11255.0000 1.0000
22.5000 11259.0000 1.0000
22.5200 11134.0000 1.0000
22.5400 11034.0000 1.0000
22.5600 11340.0000 1.0000
22.5800 11188.0000 1.0000
22.6000 11043.0000 1.0000
22.6200 11104.0000 1.0000
22.6400 10922.0000 1.0000
22.6600 11283.0000 1.0000
22.6800 11385.0000 1.0000
22.7000 11407.0000 1.0000
22.7200 11181.0000 1.0000
22.7400 11126.0000 1.0000
22.7600 11144.0000 1.0000
22.7800 11320.0000 1.0000
22.8000 11336.0000 1.0000
22.8200 11375.0000 1.0000
22.8400 11289.0000 1.0000
22.8600 11220.0000 1.0000
22.8800 11251.0000 1.0000
22.9000 11178.0000 1.0000
22.9200 11204.0000 1.0000
22.9400 11232.0000 1.0000
22.9600 11127.0000 1.0000
22.9800 11198.0000 1.0000
23.0000 11155.0000 1.0000
23.0200 11032.0000 1.0000
23.0400 11065.0000 1.0000
23.0600 11238.0000 1.0000
23.0800 11161.0000 1.0000
23.1000 11331.0000 1.0000
23.1200 11384.0000 1.0000
23.1400 11079.0000 1.0000
23.1600 11176.0000 1.0000
23.1800 11024.0000 1.0000
23.2000 11240.0000 1.0000
23.2200 11163.0000 1.0000
23.2400 11136.0000 1.0000
23.2600 11146.0000 1.0000
23.2800 11225.0000 1.0000
23.3000 11184.0000 1.0000
23.3200 11181.0000 1.0000
23.3400 11113.0000 1.0000
23.3600 11222.0000 1.0000
23.3800 11116.0000 1.0000
23.4000 11387.0000 1.0000
23.4200 11275.0000 1.0000
23.4400 11063.0000 1.0000
23.4600 11335.0000 1.0000
23.4800 11175.0000 1.0000
23.5000 11239.0000 1.0000
23.5200 11187.0000 1.0000
23.5400 11198.0000 1.0000
23.5600 11301.0000 1.0000
23.5800 11252.0000 1.0000
23.6000 11137.0000 1.0000
23.6200 11196.0000 1.0000
23.6400 11284.0000 1.0000
23.6600 11295.0000 1.0000
23.6800 11172.0000 1.0000
23.7000 11188.0000 1.0000
23.7200 11287.0000 1.0000
23.7400 11226.0000 1.0000
23.7600 11340.0000 1.0000
23.7800 11325.0000 1.0000
23.8000 11245.0000 1.0000
23.8200 11229.0000 1.0000
23.8400 11420.0000 1.0000
23.8600 11489.0000 1.0000
23.8800 11585.0000 1.0000
23.9000 11642.0000 1.0000
23.9200 11607.0000 1.0000
23.9400 11748.0000 1.0000
23.9600 12004.0000 1.0000
23.9800 12151.0000 1.0000
24.0000 12442.0000 1.0000
24.0200 12660.0000 1.0000
24.0400 12950.0000 1.0000
24.0600 13238.0000 1.0000
24.0800 13545.0000 1.0000
24.1000 14411.0000 1.0000
24.1200 14804.0000 1.0000
24.1400 15217.0000 1.0000
24.1600 15397.0000 1.0000
24.1800 14458.0000 1.0000
24.2000 14099.0000 1.0000
24.2200 13211.0000 1.0000
24.2400 12789.0000 1.0000
24.2600 12128.0000 1.0000
24.2800 11841.0000 1.0000
24.3000 11850.0000 1.0000
24.3200 11559.0000 1.0000
24.3400 11596.0000 1.0000
24.3600 11526.0000 1.0000
24.3800 11511.0000 1.0000
24.4000 11246.0000 1.0000
24.4200 11171.0000 1.0000
24.4400 11328.0000 1.0000
24.4600 11195.0000 1.0000
24.4800 11323.0000 1.0000
24.5000 11239.0000 1.0000
24.5200 11318.0000 1.0000
24.5400 11276.0000 1.0000
24.5600 11357.0000 1.0000
24.5800 11259.0000 1.0000
24.6000 11144.0000 1.0000
24.6200 11155.0000 1.0000
24.6400 11094.0000 1.0000
24.6600 11179.0000 1.0000
24.6800 11164.0000 1.0000
24.7000 11214.0000 1.0000
24.7200 11187.0000 1.0000
24.7400 11299.0000 1.0000
24.7600 11235.0000 1.0000
24.7800 10892.0000 1.0000
24.8000 11178.0000 1.0000
24.8200 10933.0000 1.0000
24.8400 11261.0000 1.0000
24.8600 10952.0000 1.0000
24.8800 10919.0000 1.0000
24.9000 11093.0000 1.0000
24.9200 11118.0000 1.0000
24.9400 11180.0000 1.0000
24.9600 11155.0000 1.0000
24.9800 11193.0000 1.0000
25.0000 10886.0000 1.0000
25.0200 11148.0000 1.0000
25.0400 11080.0000 1.0000
25.0600 11200.0000 1.0000
25.0800 11129.0000 1.0000
25.1000 11145.0000 1.0000
25.1200 11133.0000 1.0000
25.1400 11077.0000 1.0000
25.1600 11246.0000 1.0000
25.1800 11033.0000 1.0000
25.2000 11082.0000 1.0000
25.2200 11270.0000 1.0000
25.2400 11105.0000 1.0000
25.2600 11335.0000 1.0000
25.2800 11280.0000 1.0000
25.3000 11187.0000 1.0000
25.3200 11097.0000 1.0000
25.3400 11290.0000 1.0000
25.3600 11203.0000 1.0000
25.3800 11168.0000 1.0000
25.4000 11268.0000 1.0000
25.4200 11246.0000 1.0000
25.4400 11273.0000 1.0000
25.4600 11604.0000 1.0000
25.4800 11333.0000 1.0000
25.5000 11586.0000 1.0000
25.5200 11850.0000 1.0000
25.5400 11874.0000 1.0000
25.5600 12027.0000 1.0000
25.5800 12136.0000 1.0000
25.6000 11947.0000 1.0000
25.6200 11709.0000 1.0000
25.6400 11483.0000 1.0000
25.6600 11479.0000 1.0000
25.6800 11396.0000 1.0000
25.7000 11390.0000 1.0000
25.7200 11379.0000 1.0000
25.7400 11409.0000 1.0000
25.7600 11331.0000 1.0000
25.7800 11329.0000 1.0000
25.8000 11314.0000 1.0000
25.8200 11327.0000 1.0000
25.8400 11438.0000 1.0000
25.8600 11255.0000 1.0000
25.8800 11212.0000 1.0000
25.9000 11153.0000 1.0000
25.9200 11070.0000 1.0000
25.9400 11191.0000 1.0000
25.9600 11249.0000 1.0000
25.9800 11271.0000 1.0000
26.0000 11313.0000 1.0000
26.0200 11315.0000 1.0000
26.0400 11256.0000 1.0000
26.0600 11307.0000 1.0000
26.0800 11180.0000 1.0000
26.1000 11310.0000 1.0000
26.1200 11552.0000 1.0000
26.1400 11317.0000 1.0000
26.1600 11269.0000 1.0000
26.1800 11360.0000 1.0000
26.2000 11393.0000 1.0000
26.2200 11378.0000 1.0000
26.2400 11576.0000 1.0000
26.2600 11591.0000 1.0000
26.2800 11679.0000 1.0000
26.3000 11833.0000 1.0000
26.3200 11877.0000 1.0000
26.3400 12178.0000 1.0000
26.3600 12518.0000 1.0000
26.3800 12800.0000 1.0000
26.4000 13196.0000 1.0000
26.4200 13713.0000 1.0000
26.4400 14458.0000 1.0000
26.4600 15639.0000 1.0000
26.4800 15835.0000 1.0000
26.5000 17391.0000 1.0000
26.5200 19501.0000 1.0000
26.5400 22826.0000 1.0000
26.5600 27542.0000 1.0000
26.5800 33696.0000 1.0000
26.6000 40692.0000 1.0000
26.6200 51598.0000 1.0000
26.6400 60749.0000 1.0000
26.6600 48698.0000 1.0000
26.6800 35735.0000 1.0000
26.7000 35305.0000 1.0000
26.7200 29987.0000 1.0000
26.7400 20538.0000 1.0000
26.7600 15437.0000 1.0000
26.7800 14009.0000 1.0000
26.8000 13328.0000 1.0000
26.8200 12650.0000 1.0000
26.8400 12382.0000 1.0000
26.8600 11852.0000 1.0000
26.8800 11653.0000 1.0000
26.9000 11531.0000 1.0000
26.9200 11313.0000 1.0000
26.9400 11276.0000 1.0000
26.9600 11187.0000 1.0000
26.9800 11384.0000 1.0000
27.0000 11198.0000 1.0000
27.0200 11321.0000 1.0000
27.0400 11251.0000 1.0000
27.0600 11168.0000 1.0000
27.0800 11199.0000 1.0000
27.1000 11317.0000 1.0000
27.1200 11138.0000 1.0000
27.1400 11124.0000 1.0000
27.1600 11001.0000 1.0000
27.1800 11167.0000 1.0000
27.2000 11018.0000 1.0000
27.2200 11029.0000 1.0000
27.2400 11098.0000 1.0000
27.2600 11208.0000 1.0000
27.2800 11202.0000 1.0000
27.3000 11075.0000 1.0000
27.3200 10973.0000 1.0000
27.3400 10938.0000 1.0000
27.3600 11184.0000 1.0000
27.3800 10983.0000 1.0000
27.4000 11059.0000 1.0000
27.4200 11139.0000 1.0000
27.4400 11102.0000 1.0000
27.4600 11096.0000 1.0000
27.4800 11051.0000 1.0000
27.5000 11133.0000 1.0000
27.5200 10953.0000 1.0000
27.5400 11075.0000 1.0000
27.5600 11154.0000 1.0000
27.5800 11126.0000 1.0000
27.6000 11213.0000 1.0000
27.6200 11010.0000 1.0000
27.6400 10967.0000 1.0000
27.6600 11198.0000 1.0000
27.6800 11105.0000 1.0000
27.7000 11084.0000 1.0000
27.7200 11171.0000 1.0000
27.7400 10988.0000 1.0000
27.7600 10836.0000 1.0000
27.7800 10872.0000 1.0000
27.8000 11166.0000 1.0000
27.8200 11180.0000 1.0000
27.8400 11089.0000 1.0000
27.8600 10826.0000 1.0000
27.8800 10993.0000 1.0000
27.9000 11112.0000 1.0000
27.9200 10989.0000 1.0000
27.9400 10995.0000 1.0000
27.9600 11018.0000 1.0000
27.9800 11068.0000 1.0000
28.0000 11030.0000 1.0000
28.0200 10875.0000 1.0000
28.0400 10953.0000 1.0000
28.0600 11070.0000 1.0000
28.0800 10947.0000 1.0000
28.1000 10936.0000 1.0000
28.1200 11269.0000 1.0000
28.1400 10983.0000 1.0000
28.1600 11034.0000 1.0000
28.1800 11154.0000 1.0000
28.2000 11054.0000 1.0000
28.2200 10905.0000 1.0000
28.2400 10936.0000 1.0000
28.2600 10907.0000 1.0000
28.2800 10860.0000 1.0000
28.3000 11101.0000 1.0000
28.3200 10896.0000 1.0000
28.3400 10935.0000 1.0000
28.3600 11070.0000 1.0000
28.3800 10882.0000 1.0000
28.4000 11156.0000 1.0000
28.4200 11031.0000 1.0000
28.4400 11063.0000 1.0000
28.4600 10988.0000 1.0000
28.4800 10889.0000 1.0000
28.5000 10926.0000 1.0000
28.5200 11194.0000 1.0000
28.5400 11103.0000 1.0000
28.5600 10847.0000 1.0000
28.5800 10896.0000 1.0000
28.6000 11016.0000 1.0000
28.6200 10791.0000 1.0000
28.6400 11078.0000 1.0000
28.6600 11027.0000 1.0000
28.6800 10915.0000 1.0000
28.7000 10984.0000 1.0000
28.7200 10873.0000 1.0000
28.7400 10958.0000 1.0000
28.7600 10983.0000 1.0000
28.7800 10970.0000 1.0000
28.8000 10957.0000 1.0000
28.8200 11154.0000 1.0000
28.8400 10975.0000 1.0000
28.8600 10909.0000 1.0000
28.8800 11059.0000 1.0000
28.9000 10957.0000 1.0000
28.9200 11117.0000 1.0000
28.9400 11116.0000 1.0000
28.9600 11004.0000 1.0000
28.9800 11006.0000 1.0000
29.0000 11057.0000 1.0000
29.0200 10930.0000 1.0000
29.0400 11107.0000 1.0000
29.0600 11068.0000 1.0000
29.0800 11216.0000 1.0000
29.1000 11045.0000 1.0000
29.1200 10937.0000 1.0000
29.1400 10851.0000 1.0000
29.1600 10819.0000 1.0000
29.1800 10963.0000 1.0000
29.2000 10774.0000 1.0000
29.2200 11083.0000 1.0000
29.2400 10862.0000 1.0000
29.2600 11097.0000 1.0000
29.2800 10948.0000 1.0000
29.3000 10712.0000 1.0000
29.3200 10822.0000 1.0000
29.3400 10914.0000 1.0000
29.3600 10829.0000 1.0000
29.3800 10828.0000 1.0000
29.4000 11045.0000 1.0000
29.4200 11022.0000 1.0000
29.4400 10961.0000 1.0000
29.4600 11022.0000 1.0000
29.4800 11072.0000 1.0000
29.5000 10908.0000 1.0000
29.5200 10962.0000 1.0000
29.5400 10768.0000 1.0000
29.5600 10907.0000 1.0000
29.5800 10865.0000 1.0000
29.6000 10840.0000 1.0000
29.6200 11011.0000 1.0000
29.6400 10930.0000 1.0000
29.6600 10921.0000 1.0000
29.6800 10915.0000 1.0000
29.7000 11149.0000 1.0000
29.7200 11060.0000 1.0000
29.7400 10866.0000 1.0000
29.7600 10920.0000 1.0000
29.7800 11124.0000 1.0000
29.8000 11187.0000 1.0000
29.8200 11160.0000 1.0000
29.8400 11090.0000 1.0000
29.8600 11304.0000 1.0000
29.8800 11292.0000 1.0000
29.9000 11126.0000 1.0000
29.9200 11377.0000 1.0000
29.9400 11297.0000 1.0000
29.9600 11452.0000 1.0000
29.9800 11530.0000 1.0000
30.0000 11591.0000 1.0000
30.0200 11837.0000 1.0000
30.0400 12160.0000 1.0000
30.0600 12598.0000 1.0000
30.0800 13156.0000 1.0000
30.1000 13488.0000 1.0000
30.1200 13587.0000 1.0000
30.1400 13443.0000 1.0000
30.1600 13350.0000 1.0000
30.1800 12960.0000 1.0000
30.2000 12770.0000 1.0000
30.2200 12608.0000 1.0000
30.2400 12118.0000 1.0000
30.2600 11734.0000 1.0000
30.2800 11626.0000 1.0000
30.3000 11517.0000 1.0000
30.3200 11191.0000 1.0000
30.3400 11232.0000 1.0000
30.3600 11170.0000 1.0000
30.3800 11192.0000 1.0000
30.4000 11002.0000 1.0000
30.4200 11244.0000 1.0000
30.4400 10962.0000 1.0000
30.4600 10996.0000 1.0000
30.4800 10890.0000 1.0000
30.5000 10968.0000 1.0000
30.5200 11004.0000 1.0000
30.5400 10956.0000 1.0000
30.5600 10976.0000 1.0000
30.5800 10768.0000 1.0000
30.6000 10978.0000 1.0000
30.6200 10962.0000 1.0000
30.6400 10828.0000 1.0000
30.6600 10904.0000 1.0000
30.6800 11108.0000 1.0000
30.7000 10845.0000 1.0000
30.7200 11030.0000 1.0000
30.7400 10996.0000 1.0000
30.7600 10983.0000 1.0000
30.7800 10910.0000 1.0000
30.8000 10883.0000 1.0000
30.8200 11005.0000 1.0000
30.8400 11073.0000 1.0000
30.8600 11044.0000 1.0000
30.8800 10938.0000 1.0000
30.9000 10831.0000 1.0000
30.9200 10803.0000 1.0000
30.9400 10820.0000 1.0000
30.9600 10813.0000 1.0000
30.9800 10802.0000 1.0000
31.0000 11073.0000 1.0000
31.0200 10965.0000 1.0000
31.0400 10599.0000 1.0000
31.0600 10800.0000 1.0000
31.0800 10871.0000 1.0000
31.1000 10682.0000 1.0000
31.1200 10839.0000 1.0000
31.1400 10955.0000 1.0000
31.1600 11056.0000 1.0000
31.1800 10819.0000 1.0000
31.2000 10885.0000 1.0000
31.2200 10973.0000 1.0000
31.2400 10895.0000 1.0000
31.2600 10889.0000 1.0000
31.2800 10764.0000 1.0000
31.3000 10793.0000 1.0000
31.3200 10807.0000 1.0000
31.3400 10874.0000 1.0000
31.3600 10746.0000 1.0000
31.3800 10834.0000 1.0000
31.4000 10694.0000 1.0000
31.4200 10871.0000 1.0000
31.4400 10841.0000 1.0000
31.4600 10668.0000 1.0000
31.4800 10800.0000 1.0000
31.5000 10809.0000 1.0000
31.5200 10792.0000 1.0000
31.5400 10852.0000 1.0000
31.5600 10916.0000 1.0000
31.5800 10871.0000 1.0000
31.6000 10948.0000 1.0000
31.6200 10931.0000 1.0000
31.6400 10759.0000 1.0000
31.6600 11046.0000 1.0000
31.6800 10994.0000 1.0000
31.7000 10743.0000 1.0000
31.7200 10935.0000 1.0000
31.7400 10930.0000 1.0000
31.7600 10976.0000 1.0000
31.7800 10685.0000 1.0000
31.8000 10998.0000 1.0000
31.8200 10973.0000 1.0000
31.8400 10885.0000 1.0000
31.8600 11094.0000 1.0000
31.8800 10901.0000 1.0000
31.9000 11152.0000 1.0000
31.9200 11005.0000 1.0000
31.9400 11070.0000 1.0000
31.9600 10997.0000 1.0000
31.9800 11095.0000 1.0000
32.0000 10918.0000 1.0000
32.0200 11224.0000 1.0000
32.0400 10941.0000 1.0000
32.0600 10997.0000 1.0000
32.0800 10921.0000 1.0000
32.1000 11131.0000 1.0000
32.1200 11146.0000 1.0000
32.1400 10788.0000 1.0000
32.1600 10839.0000 1.0000
32.1800 11058.0000 1.0000
32.2000 10922.0000 1.0000
32.2200 10863.0000 1.0000
32.2400 10717.0000 1.0000
32.2600 10903.0000 1.0000
32.2800 10880.0000 1.0000
32.3000 10967.0000 1.0000
32.3200 10982.0000 1.0000
32.3400 10714.0000 1.0000
32.3600 10918.0000 1.0000
32.3800 10969.0000 1.0000
32.4000 10858.0000 1.0000
32.4200 10946.0000 1.0000
32.4400 11003.0000 1.0000
32.4600 10987.0000 1.0000
32.4800 10945.0000 1.0000
32.5000 10936.0000 1.0000
32.5200 10905.0000 1.0000
32.5400 10814.0000 1.0000
32.5600 11042.0000 1.0000
32.5800 10808.0000 1.0000
32.6000 11072.0000 1.0000
32.6200 11004.0000 1.0000
32.6400 10991.0000 1.0000
32.6600 10994.0000 1.0000
32.6800 11047.0000 1.0000
32.7000 11219.0000 1.0000
32.7200 10872.0000 1.0000
32.7400 11020.0000 1.0000
32.7600 11030.0000 1.0000
32.7800 11091.0000 1.0000
32.8000 11279.0000 1.0000
32.8200 11363.0000 1.0000
32.8400 11393.0000 1.0000
32.8600 11422.0000 1.0000
32.8800 11450.0000 1.0000
32.9000 11788.0000 1.0000
32.9200 11978.0000 1.0000
32.9400 12249.0000 1.0000
32.9600 12567.0000 1.0000
32.9800 12906.0000 1.0000
33.0000 13447.0000 1.0000
33.0200 14000.0000 1.0000
33.0400 14791.0000 1.0000
33.0600 16051.0000 1.0000
33.0800 17975.0000 1.0000
33.1000 19998.0000 1.0000
33.1200 23238.0000 1.0000
33.1400 25010.0000 1.0000
33.1600 25152.0000 1.0000
33.1800 23357.0000 1.0000
33.2000 21536.0000 1.0000
33.2200 20217.0000 1.0000
33.2400 19021.0000 1.0000
33.2600 17129.0000 1.0000
33.2800 15290.0000 1.0000
33.3000 13817.0000 1.0000
33.3200 12867.0000 1.0000
33.3400 12434.0000 1.0000
33.3600 11911.0000 1.0000
33.3800 11748.0000 1.0000
33.4000 11485.0000 1.0000
33.4200 11427.0000 1.0000
33.4400 11249.0000 1.0000
33.4600 11192.0000 1.0000
33.4800 11128.0000 1.0000
33.5000 11120.0000 1.0000
33.5200 11074.0000 1.0000
33.5400 10982.0000 1.0000
33.5600 11044.0000 1.0000
33.5800 10994.0000 1.0000
33.6000 10981.0000 1.0000
33.6200 11102.0000 1.0000
33.6400 10994.0000 1.0000
33.6600 11108.0000 1.0000
33.6800 10904.0000 1.0000
33.7000 11044.0000 1.0000
33.7200 10855.0000 1.0000
33.7400 10750.0000 1.0000
33.7600 10919.0000 1.0000
33.7800 10846.0000 1.0000
33.8000 10927.0000 1.0000
33.8200 10820.0000 1.0000
33.8400 10855.0000 1.0000
33.8600 10814.0000 1.0000
33.8800 10853.0000 1.0000
33.9000 10882.0000 1.0000
33.9200 11009.0000 1.0000
33.9400 10746.0000 1.0000
33.9600 10798.0000 1.0000
33.9800 10869.0000 1.0000
34.0000 10751.0000 1.0000
34.0200 10627.0000 1.0000
34.0400 10907.0000 1.0000
34.0600 10780.0000 1.0000
34.0800 10851.0000 1.0000
34.1000 10734.0000 1.0000
34.1200 10746.0000 1.0000
34.1400 10965.0000 1.0000
34.1600 10792.0000 1.0000
34.1800 10737.0000 1.0000
34.2000 10913.0000 1.0000
34.2200 10810.0000 1.0000
34.2400 10734.0000 1.0000
34.2600 10670.0000 1.0000
34.2800 10786.0000 1.0000
34.3000 10738.0000 1.0000
34.3200 10818.0000 1.0000
34.3400 10910.0000 1.0000
34.3600 11049.0000 1.0000
34.3800 10791.0000 1.0000
34.4000 10830.0000 1.0000
34.4200 10999.0000 1.0000
34.4400 10884.0000 1.0000
34.4600 10985.0000 1.0000
34.4800 10759.0000 1.0000
34.5000 10825.0000 1.0000
34.5200 10946.0000 1.0000
34.5400 10866.0000 1.0000
34.5600 10602.0000 1.0000
34.5800 11008.0000 1.0000
34.6000 10775.0000 1.0000
34.6200 10773.0000 1.0000
34.6400 10907.0000 1.0000
34.6600 10859.0000 1.0000
34.6800 10983.0000 1.0000
34.7000 11014.0000 1.0000
34.7200 10865.0000 1.0000
34.7400 10816.0000 1.0000
34.7600 11066.0000 1.0000
34.7800 10900.0000 1.0000
34.8000 11025.0000 1.0000
34.8200 11068.0000 1.0000
34.8400 10873.0000 1.0000
34.8600 10932.0000 1.0000
34.8800 10909.0000 1.0000
34.9000 11061.0000 1.0000
34.9200 11077.0000 1.0000
34.9400 11061.0000 1.0000
34.9600 11246.0000 1.0000
34.9800 11305.0000 1.0000
35.0000 11282.0000 1.0000
35.0200 11329.0000 1.0000
35.0400 11548.0000 1.0000
35.0600 11747.0000 1.0000
35.0800 11918.0000 1.0000
35.1000 11987.0000 1.0000
35.1200 12493.0000 1.0000
35.1400 12506.0000 1.0000
35.1600 12613.0000 1.0000
35.1800 12519.0000 1.0000
35.2000 12474.0000 1.0000
35.2200 12655.0000 1.0000
35.2400 12562.0000 1.0000
35.2600 12254.0000 1.0000
35.2800 12440.0000 1.0000
35.3000 12666.0000 1.0000
35.3200 12910.0000 1.0000
35.3400 13338.0000 1.0000
35.3600 14074.0000 1.0000
35.3800 14835.0000 1.0000
35.4000 16150.0000 1.0000
35.4200 17804.0000 1.0000
35.4400 19632.0000 1.0000
35.4600 21216.0000 1.0000
35.4800 21573.0000 1.0000
35.5000 21607.0000 1.0000
35.5200 21630.0000 1.0000
35.5400 21880.0000 1.0000
35.5600 22533.0000 1.0000
35.5800 23405.0000 1.0000
35.6000 24543.0000 1.0000
35.6200 24507.0000 1.0000
35.6400 23084.0000 1.0000
35.6600 20881.0000 1.0000
35.6800 19428.0000 1.0000
35.7000 18423.0000 1.0000
35.7200 17740.0000 1.0000
35.7400 16182.0000 1.0000
35.7600 14619.0000 1.0000
35.7800 13414.0000 1.0000
35.8000 12605.0000 1.0000
35.8200 12251.0000 1.0000
35.8400 11942.0000 1.0000
35.8600 11784.0000 1.0000
35.8800 11489.0000 1.0000
35.9000 11395.0000 1.0000
35.9200 11326.0000 1.0000
35.9400 11138.0000 1.0000
35.9600 11052.0000 1.0000
35.9800 11062.0000 1.0000
36.0000 11110.0000 1.0000
36.0200 11154.0000 1.0000
36.0400 10753.0000 1.0000
36.0600 10925.0000 1.0000
36.0800 10780.0000 1.0000
36.1000 10821.0000 1.0000
36.1200 10729.0000 1.0000
36.1400 10832.0000 1.0000
36.1600 10857.0000 1.0000
36.1800 10902.0000 1.0000
36.2000 10924.0000 1.0000
36.2200 10594.0000 1.0000
36.2400 10751.0000 1.0000
36.2600 10732.0000 1.0000
36.2800 10946.0000 1.0000
36.3000 10942.0000 1.0000
36.3200 10947.0000 1.0000
36.3400 11078.0000 1.0000
36.3600 10885.0000 1.0000
36.3800 10927.0000 1.0000
36.4000 11001.0000 1.0000
36.4200 11106.0000 1.0000
36.4400 11273.0000 1.0000
36.4600 12197.0000 1.0000
36.4800 12832.0000 1.0000
36.5000 13402.0000 1.0000
36.5200 14660.0000 1.0000
36.5400 14568.0000 1.0000
36.5600 13445.0000 1.0000
36.5800 12612.0000 1.0000
36.6000 12317.0000 1.0000
36.6200 12900.0000 1.0000
36.6400 12541.0000 1.0000
36.6600 11516.0000 1.0000
36.6800 11223.0000 1.0000
36.7000 11091.0000 1.0000
36.7200 10845.0000 1.0000
36.7400 10813.0000 1.0000
36.7600 10669.0000 1.0000
36.7800 10759.0000 1.0000
36.8000 10882.0000 1.0000
36.8200 10843.0000 1.0000
36.8400 10623.0000 1.0000
36.8600 10821.0000 1.0000
36.8800 10730.0000 1.0000
36.9000 10653.0000 1.0000
36.9200 10780.0000 1.0000
36.9400 10764.0000 1.0000
36.9600 10990.0000 1.0000
36.9800 10747.0000 1.0000
37.0000 10836.0000 1.0000
37.0200 10846.0000 1.0000
37.0400 10865.0000 1.0000
37.0600 11202.0000 1.0000
37.0800 11230.0000 1.0000
37.1000 11066.0000 1.0000
37.1200 10907.0000 1.0000
37.1400 11069.0000 1.0000
37.1600 11035.0000 1.0000
37.1800 11012.0000 1.0000
37.2000 11058.0000 1.0000
37.2200 10937.0000 1.0000
37.2400 10988.0000 1.0000
37.2600 10735.0000 1.0000
37.2800 10860.0000 1.0000
37.3000 10681.0000 1.0000
37.3200 10555.0000 1.0000
37.3400 10568.0000 1.0000
37.3600 10606.0000 1.0000
37.3800 10486.0000 1.0000
37.4000 10633.0000 1.0000
37.4200 10689.0000 1.0000
37.4400 10637.0000 1.0000
37.4600 10679.0000 1.0000
37.4800 10956.0000 1.0000
37.5000 10742.0000 1.0000
37.5200 10751.0000 1.0000
37.5400 10552.0000 1.0000
37.5600 10598.0000 1.0000
37.5800 10709.0000 1.0000
37.6000 10880.0000 1.0000
37.6200 10733.0000 1.0000
37.6400 10796.0000 1.0000
37.6600 10737.0000 1.0000
37.6800 10812.0000 1.0000
37.7000 10838.0000 1.0000
37.7200 11131.0000 1.0000
37.7400 11133.0000 1.0000
37.7600 11289.0000 1.0000
37.7800 11322.0000 1.0000
37.8000 11064.0000 1.0000
37.8200 11026.0000 1.0000
37.8400 10951.0000 1.0000
37.8600 10965.0000 1.0000
37.8800 10953.0000 1.0000
37.9000 10891.0000 1.0000
37.9200 10830.0000 1.0000
37.9400 10822.0000 1.0000
37.9600 10544.0000 1.0000
37.9800 10637.0000 1.0000
38.0000 10810.0000 1.0000
38.0200 10778.0000 1.0000
38.0400 10472.0000 1.0000
38.0600 10658.0000 1.0000
38.0800 10785.0000 1.0000
38.1000 10655.0000 1.0000
38.1200 10588.0000 1.0000
38.1400 10733.0000 1.0000
38.1600 10647.0000 1.0000
38.1800 10499.0000 1.0000
38.2000 10449.0000 1.0000
38.2200 10615.0000 1.0000
38.2400 10702.0000 1.0000
38.2600 10537.0000 1.0000
38.2800 10570.0000 1.0000
38.3000 10465.0000 1.0000
38.3200 10402.0000 1.0000
38.3400 10590.0000 1.0000
38.3600 10579.0000 1.0000
38.3800 10528.0000 1.0000
38.4000 10552.0000 1.0000
38.4200 10493.0000 1.0000
38.4400 10649.0000 1.0000
38.4600 10375.0000 1.0000
38.4800 10657.0000 1.0000
38.5000 10558.0000 1.0000
38.5200 10647.0000 1.0000
38.5400 10577.0000 1.0000
38.5600 10555.0000 1.0000
38.5800 10480.0000 1.0000
38.6000 10512.0000 1.0000
38.6200 10573.0000 1.0000
38.6400 10510.0000 1.0000
38.6600 10699.0000 1.0000
38.6800 10632.0000 1.0000
38.7000 10521.0000 1.0000
38.7200 10507.0000 1.0000
38.7400 10644.0000 1.0000
38.7600 10534.0000 1.0000
38.7800 10602.0000 1.0000
38.8000 10463.0000 1.0000
38.8200 10436.0000 1.0000
38.8400 10367.0000 1.0000
38.8600 10581.0000 1.0000
38.8800 10458.0000 1.0000
38.9000 10491.0000 1.0000
38.9200 10360.0000 1.0000
38.9400 10710.0000 1.0000
38.9600 10623.0000 1.0000
38.9800 10416.0000 1.0000
39.0000 10595.0000 1.0000
39.0200 10520.0000 1.0000
39.0400 10572.0000 1.0000
39.0600 10736.0000 1.0000
39.0800 10591.0000 1.0000
39.1000 10605.0000 1.0000
39.1200 10380.0000 1.0000
39.1400 10697.0000 1.0000
39.1600 10732.0000 1.0000
39.1800 10736.0000 1.0000
39.2000 10788.0000 1.0000
39.2200 10816.0000 1.0000
39.2400 10817.0000 1.0000
39.2600 10871.0000 1.0000
39.2800 10815.0000 1.0000
39.3000 10995.0000 1.0000
39.3200 11030.0000 1.0000
39.3400 11017.0000 1.0000
39.3600 11180.0000 1.0000
39.3800 11263.0000 1.0000
39.4000 11580.0000 1.0000
39.4200 12666.0000 1.0000
39.4400 14978.0000 1.0000
39.4600 15456.0000 1.0000
39.4800 13613.0000 1.0000
39.5000 12307.0000 1.0000
39.5200 11922.0000 1.0000
39.5400 12741.0000 1.0000
39.5600 13250.0000 1.0000
39.5800 12240.0000 1.0000
39.6000 11508.0000 1.0000
39.6200 11003.0000 1.0000
39.6400 10829.0000 1.0000
39.6600 10808.0000 1.0000
39.6800 10777.0000 1.0000
39.7000 10475.0000 1.0000
39.7200 10568.0000 1.0000
39.7400 10620.0000 1.0000
39.7600 10834.0000 1.0000
39.7800 10621.0000 1.0000
39.8000 10492.0000 1.0000
39.8200 10539.0000 1.0000
39.8400 10625.0000 1.0000
39.8600 10520.0000 1.0000
39.8800 10422.0000 1.0000
39.9000 10361.0000 1.0000
39.9200 10503.0000 1.0000
39.9400 10542.0000 1.0000
39.9600 10517.0000 1.0000
39.9800 10442.0000 1.0000
40.0000 10472.0000 1.0000
40.0200 10578.0000 1.0000
40.0400 10535.0000 1.0000
40.0600 10569.0000 1.0000
40.0800 10681.0000 1.0000
40.1000 10561.0000 1.0000
40.1200 10466.0000 1.0000
40.1400 10619.0000 1.0000
40.1600 10600.0000 1.0000
40.1800 10852.0000 1.0000
40.2000 10788.0000 1.0000
40.2200 10940.0000 1.0000
40.2400 11206.0000 1.0000
40.2600 11508.0000 1.0000
40.2800 11864.0000 1.0000
40.3000 11630.0000 1.0000
40.3200 11042.0000 1.0000
40.3400 11236.0000 1.0000
40.3600 11042.0000 1.0000
40.3800 11272.0000 1.0000
40.4000 10979.0000 1.0000
40.4200 10815.0000 1.0000
40.4400 10911.0000 1.0000
40.4600 10519.0000 1.0000
40.4800 10523.0000 1.0000
40.5000 10761.0000 1.0000
40.5200 10513.0000 1.0000
40.5400 10608.0000 1.0000
40.5600 10774.0000 1.0000
40.5800 10840.0000 1.0000
40.6000 10644.0000 1.0000
40.6200 10693.0000 1.0000
40.6400 10922.0000 1.0000
40.6600 10808.0000 1.0000
40.6800 10850.0000 1.0000
40.7000 10890.0000 1.0000
40.7200 11300.0000 1.0000
40.7400 11132.0000 1.0000
40.7600 11522.0000 1.0000
40.7800 11876.0000 1.0000
40.8000 12261.0000 1.0000
40.8200 12978.0000 1.0000
40.8400 13662.0000 1.0000
40.8600 13394.0000 1.0000
40.8800 13122.0000 1.0000
40.9000 12647.0000 1.0000
40.9200 12342.0000 1.0000
40.9400 12327.0000 1.0000
40.9600 12256.0000 1.0000
40.9800 11901.0000 1.0000
41.0000 11683.0000 1.0000
41.0200 11255.0000 1.0000
41.0400 11089.0000 1.0000
41.0600 10878.0000 1.0000
41.0800 10639.0000 1.0000
41.1000 10608.0000 1.0000
41.1200 10774.0000 1.0000
41.1400 10627.0000 1.0000
41.1600 10623.0000 1.0000
41.1800 10573.0000 1.0000
41.2000 10518.0000 1.0000
41.2200 10608.0000 1.0000
41.2400 10526.0000 1.0000
41.2600 10567.0000 1.0000
41.2800 10434.0000 1.0000
41.3000 10638.0000 1.0000
41.3200 10660.0000 1.0000
41.3400 10461.0000 1.0000
41.3600 10732.0000 1.0000
41.3800 10568.0000 1.0000
41.4000 10616.0000 1.0000
41.4200 10387.0000 1.0000
41.4400 10265.0000 1.0000
41.4600 10465.0000 1.0000
41.4800 10508.0000 1.0000
41.5000 10370.0000 1.0000
41.5200 10420.0000 1.0000
41.5400 10365.0000 1.0000
41.5600 10415.0000 1.0000
41.5800 10481.0000 1.0000
41.6000 10495.0000 1.0000
41.6200 10555.0000 1.0000
41.6400 10390.0000 1.0000
41.6600 10641.0000 1.0000
41.6800 10517.0000 1.0000
41.7000 10321.0000 1.0000
41.7200 10318.0000 1.0000
41.7400 10554.0000 1.0000
41.7600 10432.0000 1.0000
41.7800 10557.0000 1.0000
41.8000 10403.0000 1.0000
41.8200 10668.0000 1.0000
41.8400 10497.0000 1.0000
41.8600 10290.0000 1.0000
41.8800 10419.0000 1.0000
41.9000 10475.0000 1.0000
41.9200 10630.0000 1.0000
41.9400 10352.0000 1.0000
41.9600 10395.0000 1.0000
41.9800 10512.0000 1.0000
42.0000 10314.0000 1.0000
42.0200 10322.0000 1.0000
42.0400 10516.0000 1.0000
42.0600 10392.0000 1.0000
42.0800 10405.0000 1.0000
42.1000 10565.0000 1.0000
42.1200 10430.0000 1.0000
42.1400 10436.0000 1.0000
42.1600 10624.0000 1.0000
42.1800 10450.0000 1.0000
42.2000 10402.0000 1.0000
42.2200 10577.0000 1.0000
42.2400 10803.0000 1.0000
42.2600 10607.0000 1.0000
42.2800 10572.0000 1.0000
42.3000 10600.0000 1.0000
42.3200 10686.0000 1.0000
42.3400 10920.0000 1.0000
42.3600 10911.0000 1.0000
42.3800 11467.0000 1.0000
42.4000 12533.0000 1.0000
42.4200 13184.0000 1.0000
42.4400 13393.0000 1.0000
42.4600 12285.0000 1.0000
42.4800 11452.0000 1.0000
42.5000 11292.0000 1.0000
42.5200 11939.0000 1.0000
42.5400 11791.0000 1.0000
42.5600 11412.0000 1.0000
42.5800 11187.0000 1.0000
42.6000 10717.0000 1.0000
42.6200 10683.0000 1.0000
42.6400 10387.0000 1.0000
42.6600 10580.0000 1.0000
42.6800 10418.0000 1.0000
42.7000 10603.0000 1.0000
42.7200 10386.0000 1.0000
42.7400 10494.0000 1.0000
42.7600 10350.0000 1.0000
42.7800 10407.0000 1.0000
42.8000 10474.0000 1.0000
42.8200 10301.0000 1.0000
42.8400 10351.0000 1.0000
42.8600 10409.0000 1.0000
42.8800 10482.0000 1.0000
42.9000 10515.0000 1.0000
42.9200 10602.0000 1.0000
42.9400 10767.0000 1.0000
42.9600 10610.0000 1.0000
42.9800 10733.0000 1.0000
43.0000 10936.0000 1.0000
43.0200 11171.0000 1.0000
43.0400 11563.0000 1.0000
43.0600 11562.0000 1.0000
43.0800 12032.0000 1.0000
43.1000 12316.0000 1.0000
43.1200 12358.0000 1.0000
43.1400 12316.0000 1.0000
43.1600 12192.0000 1.0000
43.1800 12247.0000 1.0000
43.2000 12057.0000 1.0000
43.2200 12030.0000 1.0000
43.2400 11923.0000 1.0000
43.2600 12014.0000 1.0000
43.2800 11871.0000 1.0000
43.3000 12101.0000 1.0000
43.3200 12568.0000 1.0000
43.3400 12306.0000 1.0000
43.3600 11918.0000 1.0000
43.3800 11943.0000 1.0000
43.4000 11662.0000 1.0000
43.4200 11563.0000 1.0000
43.4400 11619.0000 1.0000
43.4600 11600.0000 1.0000
43.4800 11206.0000 1.0000
43.5000 11179.0000 1.0000
43.5200 10921.0000 1.0000
43.5400 10921.0000 1.0000
43.5600 10828.0000 1.0000
43.5800 10709.0000 1.0000
43.6000 10695.0000 1.0000
43.6200 10659.0000 1.0000
43.6400 10560.0000 1.0000
43.6600 10548.0000 1.0000
43.6800 10459.0000 1.0000
43.7000 10386.0000 1.0000
43.7200 10445.0000 1.0000
43.7400 10536.0000 1.0000
43.7600 10295.0000 1.0000
43.7800 10429.0000 1.0000
43.8000 10511.0000 1.0000
43.8200 10296.0000 1.0000
43.8400 10477.0000 1.0000
43.8600 10422.0000 1.0000
43.8800 10420.0000 1.0000
43.9000 10294.0000 1.0000
43.9200 10296.0000 1.0000
43.9400 10253.0000 1.0000
43.9600 10305.0000 1.0000
43.9800 10327.0000 1.0000
44.0000 10486.0000 1.0000
44.0200 10222.0000 1.0000
44.0400 10238.0000 1.0000
44.0600 10129.0000 1.0000
44.0800 10402.0000 1.0000
44.1000 10405.0000 1.0000
44.1200 10324.0000 1.0000
44.1400 10391.0000 1.0000
44.1600 10570.0000 1.0000
44.1800 10437.0000 1.0000
44.2000 10417.0000 1.0000
44.2200 10357.0000 1.0000
44.2400 10284.0000 1.0000
44.2600 10373.0000 1.0000
44.2800 10390.0000 1.0000
44.3000 10412.0000 1.0000
44.3200 10463.0000 1.0000
44.3400 10189.0000 1.0000
44.3600 10383.0000 1.0000
44.3800 10376.0000 1.0000
44.4000 10431.0000 1.0000
44.4200 10172.0000 1.0000
44.4400 10350.0000 1.0000
44.4600 10299.0000 1.0000
44.4800 10236.0000 1.0000
44.5000 10330.0000 1.0000
44.5200 10370.0000 1.0000
44.5400 10344.0000 1.0000
44.5600 10307.0000 1.0000
44.5800 10415.0000 1.0000
44.6000 10240.0000 1.0000
44.6200 10267.0000 1.0000
44.6400 10137.0000 1.0000
44.6600 10263.0000 1.0000
44.6800 10278.0000 1.0000
44.7000 10408.0000 1.0000
44.7200 10418.0000 1.0000
44.7400 10239.0000 1.0000
44.7600 10413.0000 1.0000
44.7800 10455.0000 1.0000
44.8000 10259.0000 1.0000
44.8200 10330.0000 1.0000
44.8400 10302.0000 1.0000
44.8600 10242.0000 1.0000
44.8800 10261.0000 1.0000
44.9000 10332.0000 1.0000
44.9200 10409.0000 1.0000
44.9400 10206.0000 1.0000
44.9600 10302.0000 1.0000
44.9800 10309.0000 1.0000
45.0000 10497.0000 1.0000
45.0200 10172.0000 1.0000
45.0400 10281.0000 1.0000
45.0600 10297.0000 1.0000
45.0800 10271.0000 1.0000
45.1000 10477.0000 1.0000
45.1200 10179.0000 1.0000
45.1400 10410.0000 1.0000
45.1600 10280.0000 1.0000
45.1800 10348.0000 1.0000
45.2000 10346.0000 1.0000
45.2200 10333.0000 1.0000
45.2400 10210.0000 1.0000
45.2600 10337.0000 1.0000
45.2800 10358.0000 1.0000
45.3000 10284.0000 1.0000
45.3200 10270.0000 1.0000
45.3400 10284.0000 1.0000
45.3600 10247.0000 1.0000
45.3800 10356.0000 1.0000
45.4000 10260.0000 1.0000
45.4200 10309.0000 1.0000
45.4400 10173.0000 1.0000
45.4600 10226.0000 1.0000
45.4800 10376.0000 1.0000
45.5000 10124.0000 1.0000
45.5200 10307.0000 1.0000
45.5400 10435.0000 1.0000
45.5600 10496.0000 1.0000
45.5800 10403.0000 1.0000
45.6000 10384.0000 1.0000
45.6200 10415.0000 1.0000
45.6400 10330.0000 1.0000
45.6600 10568.0000 1.0000
45.6800 10513.0000 1.0000
45.7000 10741.0000 1.0000
45.7200 10843.0000 1.0000
45.7400 11191.0000 1.0000
45.7600 11761.0000 1.0000
45.7800 12847.0000 1.0000
45.8000 13198.0000 1.0000
45.8200 12273.0000 1.0000
45.8400 11142.0000 1.0000
45.8600 11029.0000 1.0000
45.8800 11232.0000 1.0000
45.9000 11614.0000 1.0000
45.9200 11774.0000 1.0000
45.9400 11290.0000 1.0000
45.9600 10641.0000 1.0000
45.9800 10445.0000 1.0000
46.0000 10345.0000 1.0000
46.0200 10529.0000 1.0000
46.0400 10400.0000 1.0000
46.0600 10445.0000 1.0000
46.0800 10324.0000 1.0000
46.1000 10225.0000 1.0000
46.1200 10295.0000 1.0000
46.1400 10244.0000 1.0000
46.1600 10307.0000 1.0000
46.1800 10161.0000 1.0000
46.2000 10161.0000 1.0000
46.2200 10191.0000 1.0000
46.2400 10343.0000 1.0000
46.2600 10268.0000 1.0000
46.2800 10139.0000 1.0000
46.3000 10268.0000 1.0000
46.3200 10298.0000 1.0000
46.3400 10208.0000 1.0000
46.3600 10243.0000 1.0000
46.3800 10226.0000 1.0000
46.4000 10268.0000 1.0000
46.4200 10194.0000 1.0000
46.4400 10367.0000 1.0000
46.4600 10346.0000 1.0000
46.4800 10365.0000 1.0000
46.5000 10375.0000 1.0000
46.5200 10300.0000 1.0000
46.5400 10162.0000 1.0000
46.5600 10283.0000 1.0000
46.5800 10228.0000 1.0000
46.6000 10098.0000 1.0000
46.6200 10162.0000 1.0000
46.6400 10265.0000 1.0000
46.6600 10153.0000 1.0000
46.6800 10263.0000 1.0000
46.7000 10142.0000 1.0000
46.7200 10367.0000 1.0000
46.7400 10092.0000 1.0000
46.7600 10111.0000 1.0000
46.7800 10238.0000 1.0000
46.8000 10171.0000 1.0000
46.8200 10315.0000 1.0000
46.8400 10054.0000 1.0000
46.8600 10301.0000 1.0000
46.8800 10338.0000 1.0000
46.9000 10277.0000 1.0000
46.9200 10314.0000 1.0000
46.9400 10208.0000 1.0000
46.9600 10364.0000 1.0000
46.9800 10189.0000 1.0000
47.0000 10190.0000 1.0000
47.0200 10293.0000 1.0000
47.0400 10224.0000 1.0000
47.0600 10059.0000 1.0000
47.0800 10406.0000 1.0000
47.1000 10395.0000 1.0000
47.1200 10090.0000 1.0000
47.1400 10322.0000 1.0000
47.1600 10142.0000 1.0000
47.1800 10241.0000 1.0000
47.2000 10301.0000 1.0000
47.2200 10310.0000 1.0000
47.2400 10263.0000 1.0000
47.2600 10148.0000 1.0000
47.2800 10194.0000 1.0000
47.3000 10322.0000 1.0000
47.3200 10208.0000 1.0000
47.3400 10383.0000 1.0000
47.3600 10353.0000 1.0000
47.3800 10299.0000 1.0000
47.4000 10352.0000 1.0000
47.4200 10257.0000 1.0000
47.4400 10151.0000 1.0000
47.4600 10216.0000 1.0000
47.4800 10169.0000 1.0000
47.5000 10360.0000 1.0000
47.5200 10223.0000 1.0000
47.5400 10399.0000 1.0000
47.5600 10233.0000 1.0000
47.5800 10141.0000 1.0000
47.6000 10166.0000 1.0000
47.6200 10148.0000 1.0000
47.6400 10305.0000 1.0000
47.6600 10383.0000 1.0000
47.6800 10194.0000 1.0000
47.7000 10200.0000 1.0000
47.7200 10188.0000 1.0000
47.7400 10175.0000 1.0000
47.7600 10318.0000 1.0000
47.7800 10166.0000 1.0000
47.8000 10075.0000 1.0000
47.8200 10384.0000 1.0000
47.8400 10336.0000 1.0000
47.8600 10368.0000 1.0000
47.8800 10274.0000 1.0000
47.9000 10426.0000 1.0000
47.9200 10174.0000 1.0000
47.9400 10216.0000 1.0000
47.9600 10212.0000 1.0000
47.9800 10313.0000 1.0000
48.0000 10538.0000 1.0000
48.0200 10159.0000 1.0000
48.0400 10188.0000 1.0000
48.0600 10347.0000 1.0000
48.0800 10212.0000 1.0000
48.1000 10289.0000 1.0000
48.1200 10345.0000 1.0000
48.1400 10268.0000 1.0000
48.1600 10327.0000 1.0000
48.1800 10342.0000 1.0000
48.2000 10182.0000 1.0000
48.2200 10156.0000 1.0000
48.2400 10273.0000 1.0000
48.2600 10311.0000 1.0000
48.2800 10096.0000 1.0000
48.3000 10346.0000 1.0000
48.3200 10461.0000 1.0000
48.3400 10353.0000 1.0000
48.3600 10236.0000 1.0000
48.3800 10284.0000 1.0000
48.4000 10371.0000 1.0000
48.4200 10368.0000 1.0000
48.4400 10450.0000 1.0000
48.4600 10199.0000 1.0000
48.4800 10233.0000 1.0000
48.5000 10415.0000 1.0000
48.5200 10345.0000 1.0000
48.5400 10250.0000 1.0000
48.5600 10304.0000 1.0000
48.5800 10328.0000 1.0000
48.6000 10183.0000 1.0000
48.6200 10157.0000 1.0000
48.6400 10133.0000 1.0000
48.6600 10278.0000 1.0000
48.6800 10146.0000 1.0000
48.7000 10287.0000 1.0000
48.7200 10215.0000 1.0000
48.7400 10415.0000 1.0000
48.7600 10237.0000 1.0000
48.7800 10361.0000 1.0000
48.8000 10383.0000 1.0000
48.8200 10374.0000 1.0000
48.8400 10473.0000 1.0000
48.8600 10242.0000 1.0000
48.8800 10302.0000 1.0000
48.9000 10241.0000 1.0000
48.9200 10264.0000 1.0000
48.9400 10329.0000 1.0000
48.9600 10323.0000 1.0000
48.9800 10404.0000 1.0000
49.0000 10253.0000 1.0000
49.0200 10278.0000 1.0000
49.0400 10409.0000 1.0000
49.0600 10342.0000 1.0000
49.0800 10406.0000 1.0000
49.1000 10189.0000 1.0000
49.1200 10465.0000 1.0000
49.1400 10476.0000 1.0000
49.1600 10648.0000 1.0000
49.1800 10605.0000 1.0000
49.2000 10625.0000 1.0000
49.2200 10617.0000 1.0000
49.2400 10797.0000 1.0000
49.2600 10779.0000 1.0000
49.2800 10859.0000 1.0000
49.3000 11263.0000 1.0000
49.3200 11403.0000 1.0000
49.3400 11661.0000 1.0000
49.3600 12014.0000 1.0000
49.3800 12573.0000 1.0000
49.4000 13190.0000 1.0000
49.4200 14163.0000 1.0000
49.4400 14741.0000 1.0000
49.4600 14821.0000 1.0000
49.4800 14411.0000 1.0000
49.5000 13561.0000 1.0000
49.5200 13214.0000 1.0000
49.5400 12834.0000 1.0000
49.5600 12955.0000 1.0000
49.5800 13150.0000 1.0000
49.6000 12759.0000 1.0000
49.6200 12195.0000 1.0000
49.6400 11700.0000 1.0000
49.6600 11540.0000 1.0000
49.6800 10965.0000 1.0000
49.7000 10819.0000 1.0000
49.7200 10730.0000 1.0000
49.7400 10595.0000 1.0000
49.7600 10580.0000 1.0000
49.7800 10405.0000 1.0000
49.8000 10443.0000 1.0000
49.8200 10441.0000 1.0000
49.8400 10456.0000 1.0000
49.8600 10460.0000 1.0000
49.8800 10552.0000 1.0000
49.9000 10457.0000 1.0000
49.9200 10585.0000 1.0000
49.9400 10417.0000 1.0000
49.9600 10442.0000 1.0000
49.9800 10745.0000 1.0000
50.0000 10687.0000 1.0000
50.0200 10877.0000 1.0000
50.0400 11280.0000 1.0000
50.0600 11381.0000 1.0000
50.0800 12086.0000 1.0000
50.1000 13053.0000 1.0000
50.1200 14256.0000 1.0000
50.1400 14148.0000 1.0000
50.1600 12569.0000 1.0000
50.1800 11718.0000 1.0000
50.2000 11359.0000 1.0000
50.2200 11610.0000 1.0000
50.2400 12239.0000 1.0000
50.2600 12395.0000 1.0000
50.2800 11952.0000 1.0000
50.3000 11156.0000 1.0000
50.3200 10675.0000 1.0000
50.3400 10262.0000 1.0000
50.3600 10503.0000 1.0000
50.3800 10584.0000 1.0000
50.4000 10503.0000 1.0000
50.4200 10305.0000 1.0000
50.4400 10402.0000 1.0000
50.4600 10176.0000 1.0000
50.4800 10340.0000 1.0000
50.5000 10171.0000 1.0000
50.5200 10199.0000 1.0000
50.5400 10340.0000 1.0000
50.5600 10363.0000 1.0000
50.5800 10175.0000 1.0000
50.6000 10376.0000 1.0000
50.6200 10484.0000 1.0000
50.6400 10456.0000 1.0000
50.6600 10175.0000 1.0000
50.6800 10196.0000 1.0000
50.7000 10252.0000 1.0000
50.7200 10375.0000 1.0000
50.7400 10369.0000 1.0000
50.7600 10282.0000 1.0000
50.7800 10448.0000 1.0000
50.8000 10236.0000 1.0000
50.8200 10477.0000 1.0000
50.8400 10220.0000 1.0000
50.8600 10175.0000 1.0000
50.8800 10317.0000 1.0000
50.9000 10268.0000 1.0000
50.9200 10200.0000 1.0000
50.9400 10173.0000 1.0000
50.9600 10148.0000 1.0000
50.9800 10211.0000 1.0000
51.0000 10314.0000 1.0000
51.0200 10098.0000 1.0000
51.0400 10261.0000 1.0000
51.0600 10296.0000 1.0000
51.0800 10282.0000 1.0000
51.1000 10264.0000 1.0000
51.1200 10241.0000 1.0000
51.1400 10099.0000 1.0000
51.1600 10318.0000 1.0000
51.1800 10246.0000 1.0000
51.2000 10327.0000 1.0000
51.2200 10205.0000 1.0000
51.2400 10294.0000 1.0000
51.2600 10157.0000 1.0000
51.2800 10224.0000 1.0000
51.3000 10320.0000 1.0000
51.3200 10236.0000 1.0000
51.3400 10176.0000 1.0000
51.3600 10361.0000 1.0000
51.3800 10135.0000 1.0000
51.4000 10310.0000 1.0000
51.4200 10353.0000 1.0000
51.4400 10289.0000 1.0000
51.4600 10188.0000 1.0000
51.4800 10191.0000 1.0000
51.5000 10108.0000 1.0000
51.5200 10054.0000 1.0000
51.5400 10209.0000 1.0000
51.5600 10302.0000 1.0000
51.5800 10246.0000 1.0000
51.6000 10074.0000 1.0000
51.6200 10244.0000 1.0000
51.6400 10285.0000 1.0000
51.6600 10223.0000 1.0000
51.6800 10381.0000 1.0000
51.7000 10089.0000 1.0000
51.7200 10367.0000 1.0000
51.7400 10253.0000 1.0000
51.7600 10225.0000 1.0000
51.7800 10310.0000 1.0000
51.8000 10275.0000 1.0000
51.8200 10421.0000 1.0000
51.8400 10397.0000 1.0000
51.8600 10466.0000 1.0000
51.8800 10276.0000 1.0000
51.9000 10239.0000 1.0000
51.9200 10254.0000 1.0000
51.9400 10121.0000 1.0000
51.9600 10327.0000 1.0000
51.9800 10092.0000 1.0000
52.0000 10344.0000 1.0000
52.0200 10218.0000 1.0000
52.0400 10249.0000 1.0000
52.0600 10153.0000 1.0000
52.0800 10312.0000 1.0000
52.1000 10293.0000 1.0000
52.1200 10411.0000 1.0000
52.1400 10323.0000 1.0000
52.1600 10054.0000 1.0000
52.1800 10158.0000 1.0000
52.2000 10256.0000 1.0000
52.2200 10317.0000 1.0000
52.2400 10138.0000 1.0000
52.2600 10283.0000 1.0000
52.2800 10291.0000 1.0000
52.3000 10385.0000 1.0000
52.3200 10209.0000 1.0000
52.3400 10396.0000 1.0000
52.3600 10419.0000 1.0000
52.3800 10453.0000 1.0000
52.4000 10424.0000 1.0000
52.4200 10326.0000 1.0000
52.4400 10555.0000 1.0000
52.4600 10558.0000 1.0000
52.4800 10795.0000 1.0000
52.5000 10699.0000 1.0000
52.5200 10856.0000 1.0000
52.5400 11054.0000 1.0000
52.5600 10847.0000 1.0000
52.5800 10675.0000 1.0000
52.6000 10793.0000 1.0000
52.6200 10597.0000 1.0000
52.6400 10583.0000 1.0000
52.6600 10641.0000 1.0000
52.6800 10592.0000 1.0000
52.7000 10468.0000 1.0000
52.7200 10401.0000 1.0000
52.7400 10707.0000 1.0000
52.7600 10461.0000 1.0000
52.7800 10344.0000 1.0000
52.8000 10132.0000 1.0000
52.8200 10392.0000 1.0000
52.8400 10544.0000 1.0000
52.8600 10380.0000 1.0000
52.8800 10456.0000 1.0000
52.9000 10486.0000 1.0000
52.9200 10500.0000 1.0000
52.9400 10289.0000 1.0000
52.9600 10065.0000 1.0000
52.9800 10269.0000 1.0000
53.0000 10272.0000 1.0000
53.0200 10261.0000 1.0000
53.0400 10105.0000 1.0000
53.0600 10191.0000 1.0000
53.0800 10428.0000 1.0000
53.1000 10413.0000 1.0000
53.1200 10317.0000 1.0000
53.1400 10225.0000 1.0000
53.1600 10337.0000 1.0000
53.1800 10297.0000 1.0000
53.2000 10308.0000 1.0000
53.2200 10286.0000 1.0000
53.2400 10122.0000 1.0000
53.2600 10525.0000 1.0000
53.2800 10277.0000 1.0000
53.3000 10426.0000 1.0000
53.3200 10302.0000 1.0000
53.3400 10444.0000 1.0000
53.3600 10585.0000 1.0000
53.3800 10650.0000 1.0000
53.4000 10468.0000 1.0000
53.4200 10646.0000 1.0000
53.4400 10669.0000 1.0000
53.4600 10960.0000 1.0000
53.4800 11094.0000 1.0000
53.5000 10955.0000 1.0000
53.5200 10970.0000 1.0000
53.5400 11032.0000 1.0000
53.5600 10802.0000 1.0000
53.5800 10899.0000 1.0000
53.6000 10981.0000 1.0000
53.6200 10757.0000 1.0000
53.6400 10832.0000 1.0000
53.6600 10701.0000 1.0000
53.6800 11014.0000 1.0000
53.7000 10621.0000 1.0000
53.7200 10719.0000 1.0000
53.7400 10553.0000 1.0000
53.7600 10668.0000 1.0000
53.7800 10608.0000 1.0000
53.8000 10662.0000 1.0000
53.8200 10830.0000 1.0000
53.8400 10816.0000 1.0000
53.8600 11071.0000 1.0000
53.8800 11169.0000 1.0000
53.9000 11042.0000 1.0000
53.9200 11311.0000 1.0000
53.9400 11582.0000 1.0000
53.9600 11889.0000 1.0000
53.9800 12962.0000 1.0000
54.0000 13779.0000 1.0000
54.0200 14662.0000 1.0000
54.0400 15481.0000 1.0000
54.0600 16074.0000 1.0000
54.0800 15525.0000 1.0000
54.1000 14555.0000 1.0000
54.1200 13704.0000 1.0000
54.1400 13294.0000 1.0000
54.1600 13257.0000 1.0000
54.1800 13471.0000 1.0000
54.2000 13703.0000 1.0000
54.2200 13340.0000 1.0000
54.2400 12593.0000 1.0000
54.2600 12127.0000 1.0000
54.2800 11565.0000 1.0000
54.3000 11283.0000 1.0000
54.3200 10901.0000 1.0000
54.3400 10816.0000 1.0000
54.3600 10549.0000 1.0000
54.3800 10617.0000 1.0000
54.4000 10394.0000 1.0000
54.4200 10546.0000 1.0000
54.4400 10421.0000 1.0000
54.4600 10377.0000 1.0000
54.4800 10364.0000 1.0000
54.5000 10384.0000 1.0000
54.5200 10245.0000 1.0000
54.5400 10166.0000 1.0000
54.5600 10392.0000 1.0000
54.5800 10526.0000 1.0000
54.6000 10233.0000 1.0000
54.6200 10440.0000 1.0000
54.6400 10504.0000 1.0000
54.6600 10493.0000 1.0000
54.6800 10391.0000 1.0000
54.7000 10349.0000 1.0000
54.7200 10464.0000 1.0000
54.7400 10512.0000 1.0000
54.7600 10397.0000 1.0000
54.7800 10607.0000 1.0000
54.8000 10870.0000 1.0000
54.8200 10976.0000 1.0000
54.8400 11875.0000 1.0000
54.8600 12412.0000 1.0000
54.8800 11935.0000 1.0000
54.9000 11372.0000 1.0000
54.9200 10910.0000 1.0000
54.9400 10782.0000 1.0000
54.9600 10761.0000 1.0000
54.9800 10978.0000 1.0000
55.0000 11358.0000 1.0000
55.0200 11658.0000 1.0000
55.0400 10937.0000 1.0000
55.0600 10734.0000 1.0000
55.0800 10362.0000 1.0000
55.1000 10375.0000 1.0000
55.1200 10268.0000 1.0000
55.1400 10355.0000 1.0000
55.1600 10289.0000 1.0000
55.1800 10301.0000 1.0000
55.2000 10420.0000 1.0000
55.2200 10358.0000 1.0000
55.2400 10153.0000 1.0000
55.2600 10658.0000 1.0000
55.2800 10361.0000 1.0000
55.3000 10663.0000 1.0000
55.3200 10568.0000 1.0000
55.3400 10678.0000 1.0000
55.3600 10466.0000 1.0000
55.3800 10389.0000 1.0000
55.4000 10332.0000 1.0000
55.4200 10379.0000 1.0000
55.4400 10299.0000 1.0000
55.4600 10422.0000 1.0000
55.4800 10436.0000 1.0000
55.5000 10377.0000 1.0000
55.5200 10138.0000 1.0000
55.5400 10269.0000 1.0000
55.5600 10433.0000 1.0000
55.5800 10137.0000 1.0000
55.6000 10340.0000 1.0000
55.6200 10292.0000 1.0000
55.6400 10399.0000 1.0000
55.6600 10348.0000 1.0000
55.6800 10339.0000 1.0000
55.7000 10373.0000 1.0000
55.7200 10229.0000 1.0000
55.7400 10512.0000 1.0000
55.7600 10399.0000 1.0000
55.7800 10455.0000 1.0000
55.8000 10327.0000 1.0000
55.8200 10399.0000 1.0000
55.8400 10350.0000 1.0000
55.8600 10462.0000 1.0000
55.8800 10183.0000 1.0000
55.9000 10234.0000 1.0000
55.9200 10369.0000 1.0000
55.9400 10392.0000 1.0000
55.9600 10266.0000 1.0000
55.9800 10229.0000 1.0000
56.0000 10319.0000 1.0000
56.0200 10351.0000 1.0000
56.0400 10276.0000 1.0000
56.0600 10325.0000 1.0000
56.0800 10431.0000 1.0000
56.1000 10486.0000 1.0000
56.1200 10248.0000 1.0000
56.1400 10376.0000 1.0000
56.1600 10296.0000 1.0000
56.1800 10198.0000 1.0000
56.2000 10226.0000 1.0000
56.2200 10254.0000 1.0000
56.2400 10265.0000 1.0000
56.2600 10416.0000 1.0000
56.2800 10425.0000 1.0000
56.3000 10193.0000 1.0000
56.3200 10287.0000 1.0000
56.3400 10127.0000 1.0000
56.3600 10274.0000 1.0000
56.3800 10195.0000 1.0000
56.4000 10401.0000 1.0000
56.4200 10348.0000 1.0000
56.4400 10299.0000 1.0000
56.4600 10242.0000 1.0000
56.4800 10214.0000 1.0000
56.5000 10253.0000 1.0000
56.5200 10371.0000 1.0000
56.5400 10136.0000 1.0000
56.5600 10312.0000 1.0000
56.5800 10124.0000 1.0000
56.6000 10152.0000 1.0000
56.6200 10407.0000 1.0000
56.6400 10344.0000 1.0000
56.6600 10307.0000 1.0000
56.6800 10478.0000 1.0000
56.7000 10353.0000 1.0000
56.7200 10347.0000 1.0000
56.7400 10422.0000 1.0000
56.7600 10556.0000 1.0000
56.7800 10381.0000 1.0000
56.8000 10534.0000 1.0000
56.8200 10455.0000 1.0000
56.8400 10647.0000 1.0000
56.8600 10690.0000 1.0000
56.8800 10864.0000 1.0000
56.9000 10849.0000 1.0000
56.9200 11192.0000 1.0000
56.9400 11321.0000 1.0000
56.9600 11777.0000 1.0000
56.9800 12159.0000 1.0000
57.0000 12365.0000 1.0000
57.0200 12582.0000 1.0000
57.0400 12392.0000 1.0000
57.0600 12247.0000 1.0000
57.0800 11962.0000 1.0000
57.1000 11787.0000 1.0000
57.1200 11920.0000 1.0000
57.1400 12152.0000 1.0000
57.1600 12104.0000 1.0000
57.1800 11999.0000 1.0000
57.2000 11950.0000 1.0000
57.2200 11846.0000 1.0000
57.2400 11563.0000 1.0000
57.2600 11195.0000 1.0000
57.2800 11427.0000 1.0000
57.3000 11061.0000 1.0000
57.3200 11106.0000 1.0000
57.3400 11146.0000 1.0000
57.3600 11201.0000 1.0000
57.3800 11483.0000 1.0000
57.4000 11472.0000 1.0000
57.4200 11631.0000 1.0000
57.4400 11937.0000 1.0000
57.4600 12111.0000 1.0000
57.4800 12241.0000 1.0000
57.5000 12147.0000 1.0000
57.5200 12075.0000 1.0000
57.5400 12188.0000 1.0000
57.5600 12002.0000 1.0000
57.5800 12295.0000 1.0000
57.6000 12350.0000 1.0000
57.6200 11803.0000 1.0000
57.6400 11630.0000 1.0000
57.6600 11347.0000 1.0000
57.6800 11284.0000 1.0000
57.7000 11193.0000 1.0000
57.7200 11069.0000 1.0000
57.7400 11115.0000 1.0000
57.7600 11001.0000 1.0000
57.7800 11034.0000 1.0000
57.8000 10819.0000 1.0000
57.8200 10667.0000 1.0000
57.8400 10610.0000 1.0000
57.8600 10725.0000 1.0000
57.8800 10352.0000 1.0000
57.9000 10502.0000 1.0000
57.9200 10460.0000 1.0000
57.9400 10388.0000 1.0000
57.9600 10353.0000 1.0000
57.9800 10462.0000 1.0000
58.0000 10343.0000 1.0000
58.0200 10368.0000 1.0000
58.0400 10379.0000 1.0000
58.0600 10305.0000 1.0000
58.0800 10418.0000 1.0000
58.1000 10331.0000 1.0000
58.1200 10561.0000 1.0000
58.1400 10304.0000 1.0000
58.1600 10229.0000 1.0000
58.1800 10350.0000 1.0000
58.2000 10160.0000 1.0000
58.2200 10157.0000 1.0000
58.2400 10328.0000 1.0000
58.2600 10276.0000 1.0000
58.2800 10271.0000 1.0000
58.3000 10297.0000 1.0000
58.3200 10232.0000 1.0000
58.3400 10206.0000 1.0000
58.3600 10269.0000 1.0000
58.3800 10103.0000 1.0000
58.4000 10213.0000 1.0000
58.4200 10374.0000 1.0000
58.4400 10209.0000 1.0000
58.4600 10397.0000 1.0000
58.4800 10419.0000 1.0000
58.5000 10261.0000 1.0000
58.5200 10234.0000 1.0000
58.5400 10221.0000 1.0000
58.5600 10303.0000 1.0000
58.5800 10224.0000 1.0000
58.6000 10251.0000 1.0000
58.6200 10206.0000 1.0000
58.6400 10362.0000 1.0000
58.6600 10353.0000 1.0000
58.6800 10369.0000 1.0000
58.7000 10326.0000 1.0000
58.7200 10283.0000 1.0000
58.7400 10228.0000 1.0000
58.7600 10275.0000 1.0000
58.7800 10509.0000 1.0000
58.8000 10234.0000 1.0000
58.8200 10315.0000 1.0000
58.8400 10509.0000 1.0000
58.8600 10270.0000 1.0000
58.8800 10274.0000 1.0000
58.9000 10372.0000 1.0000
58.9200 10195.0000 1.0000
58.9400 10318.0000 1.0000
58.9600 10304.0000 1.0000
58.9800 10227.0000 1.0000
59.0000 10287.0000 1.0000
59.0200 10263.0000 1.0000
59.0400 10181.0000 1.0000
59.0600 10202.0000 1.0000
59.0800 10294.0000 1.0000
59.1000 10229.0000 1.0000
59.1200 10361.0000 1.0000
59.1400 10094.0000 1.0000
59.1600 10318.0000 1.0000
59.1800 10362.0000 1.0000
59.2000 10264.0000 1.0000
59.2200 10320.0000 1.0000
59.2400 10235.0000 1.0000
59.2600 10244.0000 1.0000
59.2800 10404.0000 1.0000
59.3000 10339.0000 1.0000
59.3200 10172.0000 1.0000
59.3400 10401.0000 1.0000
59.3600 10333.0000 1.0000
59.3800 10245.0000 1.0000
59.4000 10318.0000 1.0000
59.4200 10393.0000 1.0000
59.4400 10147.0000 1.0000
59.4600 10337.0000 1.0000
59.4800 10399.0000 1.0000
59.5000 10234.0000 1.0000
59.5200 10381.0000 1.0000
59.5400 10131.0000 1.0000
59.5600 10537.0000 1.0000
59.5800 10405.0000 1.0000
59.6000 10239.0000 1.0000
59.6200 10298.0000 1.0000
59.6400 10369.0000 1.0000
59.6600 10435.0000 1.0000
59.6800 10478.0000 1.0000
59.7000 10501.0000 1.0000
59.7200 10419.0000 1.0000
59.7400 10480.0000 1.0000
59.7600 10305.0000 1.0000
59.7800 10501.0000 1.0000
59.8000 10688.0000 1.0000
59.8200 10538.0000 1.0000
59.8400 10813.0000 1.0000
59.8600 11094.0000 1.0000
59.8800 11521.0000 1.0000
59.9000 12360.0000 1.0000
59.9200 13869.0000 1.0000
59.9400 14265.0000 1.0000
59.9600 13517.0000 1.0000
59.9800 12412.0000 1.0000
60.0000 11397.0000 1.0000
60.0200 11029.0000 1.0000
60.0400 10992.0000 1.0000
60.0600 11415.0000 1.0000
60.0800 11856.0000 1.0000
60.1000 12261.0000 1.0000
60.1200 12193.0000 1.0000
60.1400 11458.0000 1.0000
60.1600 10828.0000 1.0000
60.1800 10503.0000 1.0000
60.2000 10458.0000 1.0000
60.2200 10352.0000 1.0000
60.2400 10277.0000 1.0000
60.2600 10586.0000 1.0000
60.2800 10452.0000 1.0000
60.3000 10306.0000 1.0000
60.3200 10274.0000 1.0000
60.3400 10173.0000 1.0000
60.3600 10351.0000 1.0000
60.3800 10330.0000 1.0000
60.4000 10253.0000 1.0000
60.4200 10234.0000 1.0000
60.4400 10379.0000 1.0000
60.4600 10382.0000 1.0000
60.4800 10253.0000 1.0000
60.5000 10432.0000 1.0000
60.5200 10175.0000 1.0000
60.5400 10289.0000 1.0000
60.5600 10475.0000 1.0000
60.5800 10339.0000 1.0000
60.6000 10292.0000 1.0000
60.6200 10247.0000 1.0000
60.6400 10158.0000 1.0000
60.6600 10214.0000 1.0000
60.6800 10453.0000 1.0000
60.7000 10351.0000 1.0000
60.7200 10288.0000 1.0000
60.7400 10355.0000 1.0000
60.7600 10269.0000 1.0000
60.7800 10297.0000 1.0000
60.8000 10212.0000 1.0000
60.8200 10234.0000 1.0000
60.8400 10386.0000 1.0000
60.8600 10250.0000 1.0000
60.8800 10393.0000 1.0000
60.9000 10372.0000 1.0000
60.9200 10381.0000 1.0000
60.9400 10348.0000 1.0000
60.9600 10336.0000 1.0000
60.9800 10368.0000 1.0000
61.0000 10338.0000 1.0000
61.0200 10391.0000 1.0000
61.0400 10488.0000 1.0000
61.0600 10239.0000 1.0000
61.0800 10181.0000 1.0000
61.1000 10267.0000 1.0000
61.1200 10342.0000 1.0000
61.1400 10304.0000 1.0000
61.1600 10254.0000 1.0000
61.1800 10521.0000 1.0000
61.2000 10395.0000 1.0000
61.2200 10511.0000 1.0000
61.2400 10391.0000 1.0000
61.2600 10338.0000 1.0000
61.2800 10466.0000 1.0000
61.3000 10291.0000 1.0000
61.3200 10571.0000 1.0000
61.3400 10273.0000 1.0000
61.3600 10424.0000 1.0000
61.3800 10358.0000 1.0000
61.4000 10201.0000 1.0000
61.4200 10278.0000 1.0000
61.4400 10473.0000 1.0000
61.4600 10358.0000 1.0000
61.4800 10423.0000 1.0000
61.5000 10350.0000 1.0000
61.5200 10301.0000 1.0000
61.5400 10359.0000 1.0000
61.5600 10392.0000 1.0000
61.5800 10233.0000 1.0000
61.6000 10457.0000 1.0000
61.6200 10059.0000 1.0000
61.6400 10306.0000 1.0000
61.6600 10371.0000 1.0000
61.6800 10552.0000 1.0000
61.7000 10261.0000 1.0000
61.7200 10438.0000 1.0000
61.7400 10048.0000 1.0000
61.7600 10285.0000 1.0000
61.7800 10286.0000 1.0000
61.8000 10284.0000 1.0000
61.8200 10478.0000 1.0000
61.8400 10262.0000 1.0000
61.8600 10442.0000 1.0000
61.8800 10287.0000 1.0000
61.9000 10375.0000 1.0000
61.9200 10388.0000 1.0000
61.9400 10422.0000 1.0000
61.9600 10285.0000 1.0000
61.9800 10417.0000 1.0000
62.0000 10332.0000 1.0000
62.0200 10341.0000 1.0000
62.0400 10402.0000 1.0000
62.0600 10265.0000 1.0000
62.0800 10528.0000 1.0000
62.1000 10384.0000 1.0000
62.1200 10542.0000 1.0000
62.1400 10550.0000 1.0000
62.1600 10504.0000 1.0000
62.1800 10597.0000 1.0000
62.2000 10717.0000 1.0000
62.2200 10659.0000 1.0000
62.2400 10908.0000 1.0000
62.2600 10985.0000 1.0000
62.2800 11067.0000 1.0000
62.3000 11320.0000 1.0000
62.3200 11493.0000 1.0000
62.3400 12187.0000 1.0000
62.3600 12516.0000 1.0000
62.3800 13189.0000 1.0000
62.4000 13848.0000 1.0000
62.4200 14140.0000 1.0000
62.4400 14102.0000 1.0000
62.4600 13597.0000 1.0000
62.4800 13235.0000 1.0000
62.5000 12923.0000 1.0000
62.5200 13255.0000 1.0000
62.5400 13746.0000 1.0000
62.5600 14204.0000 1.0000
62.5800 14558.0000 1.0000
62.6000 14938.0000 1.0000
62.6200 14957.0000 1.0000
62.6400 14399.0000 1.0000
62.6600 13731.0000 1.0000
62.6800 13269.0000 1.0000
62.7000 12873.0000 1.0000
62.7200 12759.0000 1.0000
62.7400 12658.0000 1.0000
62.7600 12552.0000 1.0000
62.7800 12700.0000 1.0000
62.8000 12481.0000 1.0000
62.8200 12139.0000 1.0000
62.8400 11702.0000 1.0000
62.8600 11482.0000 1.0000
62.8800 11280.0000 1.0000
62.9000 10951.0000 1.0000
62.9200 11152.0000 1.0000
62.9400 10886.0000 1.0000
62.9600 10795.0000 1.0000
62.9800 10812.0000 1.0000
63.0000 10665.0000 1.0000
63.0200 10578.0000 1.0000
63.0400 10551.0000 1.0000
63.0600 10545.0000 1.0000
63.0800 10458.0000 1.0000
63.1000 10637.0000 1.0000
63.1200 10620.0000 1.0000
63.1400 10496.0000 1.0000
63.1600 10583.0000 1.0000
63.1800 10560.0000 1.0000
63.2000 10440.0000 1.0000
63.2200 10483.0000 1.0000
63.2400 10224.0000 1.0000
63.2600 10331.0000 1.0000
63.2800 10484.0000 1.0000
63.3000 10363.0000 1.0000
63.3200 10412.0000 1.0000
63.3400 10367.0000 1.0000
63.3600 10409.0000 1.0000
63.3800 10258.0000 1.0000
63.4000 10482.0000 1.0000
63.4200 10286.0000 1.0000
63.4400 10355.0000 1.0000
63.4600 10195.0000 1.0000
63.4800 10152.0000 1.0000
63.5000 10241.0000 1.0000
63.5200 10464.0000 1.0000
63.5400 10478.0000 1.0000
63.5600 10455.0000 1.0000
63.5800 10424.0000 1.0000
63.6000 10300.0000 1.0000
63.6200 10271.0000 1.0000
63.6400 10328.0000 1.0000
63.6600 10303.0000 1.0000
63.6800 10563.0000 1.0000
63.7000 10499.0000 1.0000
63.7200 10544.0000 1.0000
63.7400 10659.0000 1.0000
63.7600 10658.0000 1.0000
63.7800 10539.0000 1.0000
63.8000 10758.0000 1.0000
63.8200 10794.0000 1.0000
63.8400 10957.0000 1.0000
63.8600 11186.0000 1.0000
63.8800 11246.0000 1.0000
63.9000 11737.0000 1.0000
63.9200 12363.0000 1.0000
63.9400 12818.0000 1.0000
63.9600 13565.0000 1.0000
63.9800 14133.0000 1.0000
64.0000 14280.0000 1.0000
64.0200 13783.0000 1.0000
64.0400 12996.0000 1.0000
64.0600 12540.0000 1.0000
64.0800 11850.0000 1.0000
64.1000 11850.0000 1.0000
64.1200 12096.0000 1.0000
64.1400 12392.0000 1.0000
64.1600 12513.0000 1.0000
64.1800 12294.0000 1.0000
64.2000 12088.0000 1.0000
64.2200 11546.0000 1.0000
64.2400 11330.0000 1.0000
64.2600 10909.0000 1.0000
64.2800 10683.0000 1.0000
64.3000 10559.0000 1.0000
64.3200 10709.0000 1.0000
64.3400 10540.0000 1.0000
64.3600 10396.0000 1.0000
64.3800 10325.0000 1.0000
64.4000 10331.0000 1.0000
64.4200 10447.0000 1.0000
64.4400 10529.0000 1.0000
64.4600 10526.0000 1.0000
64.4800 10273.0000 1.0000
64.5000 10260.0000 1.0000
64.5200 10461.0000 1.0000
64.5400 10258.0000 1.0000
64.5600 10292.0000 1.0000
64.5800 10400.0000 1.0000
64.6000 10318.0000 1.0000
64.6200 10429.0000 1.0000
64.6400 10319.0000 1.0000
64.6600 10351.0000 1.0000
64.6800 10397.0000 1.0000
64.7000 10407.0000 1.0000
64.7200 10209.0000 1.0000
64.7400 10405.0000 1.0000
64.7600 10336.0000 1.0000
64.7800 10302.0000 1.0000
64.8000 10369.0000 1.0000
64.8200 10364.0000 1.0000
64.8400 10408.0000 1.0000
64.8600 10256.0000 1.0000
64.8800 10185.0000 1.0000
64.9000 10254.0000 1.0000
64.9200 10391.0000 1.0000
64.9400 10267.0000 1.0000
64.9600 10410.0000 1.0000
64.9800 10469.0000 1.0000
65.0000 10346.0000 1.0000
65.0200 10226.0000 1.0000
65.0400 10346.0000 1.0000
65.0600 10350.0000 1.0000
65.0800 10326.0000 1.0000
65.1000 10412.0000 1.0000
65.1200 10168.0000 1.0000
65.1400 10362.0000 1.0000
65.1600 10250.0000 1.0000
65.1800 10294.0000 1.0000
65.2000 10285.0000 1.0000
65.2200 10446.0000 1.0000
65.2400 10250.0000 1.0000
65.2600 10260.0000 1.0000
65.2800 10358.0000 1.0000
65.3000 10254.0000 1.0000
65.3200 10385.0000 1.0000
65.3400 10346.0000 1.0000
65.3600 10177.0000 1.0000
65.3800 10347.0000 1.0000
65.4000 10342.0000 1.0000
65.4200 10340.0000 1.0000
65.4400 10219.0000 1.0000
65.4600 10258.0000 1.0000
65.4800 10191.0000 1.0000
65.5000 10330.0000 1.0000
65.5200 10304.0000 1.0000
65.5400 10046.0000 1.0000
65.5600 10200.0000 1.0000
65.5800 10265.0000 1.0000
65.6000 10060.0000 1.0000
65.6200 10384.0000 1.0000
65.6400 10324.0000 1.0000
65.6600 10420.0000 1.0000
65.6800 10343.0000 1.0000
65.7000 10600.0000 1.0000
65.7200 10318.0000 1.0000
65.7400 10364.0000 1.0000
65.7600 10572.0000 1.0000
65.7800 10576.0000 1.0000
65.8000 10356.0000 1.0000
65.8200 10343.0000 1.0000
65.8400 10423.0000 1.0000
65.8600 10324.0000 1.0000
65.8800 10246.0000 1.0000
65.9000 10242.0000 1.0000
65.9200 10315.0000 1.0000
65.9400 10345.0000 1.0000
65.9600 10402.0000 1.0000
65.9800 10425.0000 1.0000
66.0000 10496.0000 1.0000
66.0200 10462.0000 1.0000
66.0400 10350.0000 1.0000
66.0600 10374.0000 1.0000
66.0800 10351.0000 1.0000
66.1000 10341.0000 1.0000
66.1200 10359.0000 1.0000
66.1400 10428.0000 1.0000
66.1600 10340.0000 1.0000
66.1800 10339.0000 1.0000
66.2000 10215.0000 1.0000
66.2200 10223.0000 1.0000
66.2400 10344.0000 1.0000
66.2600 10190.0000 1.0000
66.2800 10485.0000 1.0000
66.3000 10448.0000 1.0000
66.3200 10420.0000 1.0000
66.3400 10578.0000 1.0000
66.3600 10539.0000 1.0000
66.3800 10407.0000 1.0000
66.4000 10383.0000 1.0000
66.4200 10503.0000 1.0000
66.4400 10752.0000 1.0000
66.4600 10732.0000 1.0000
66.4800 10924.0000 1.0000
66.5000 10779.0000 1.0000
66.5200 10766.0000 1.0000
66.5400 10647.0000 1.0000
66.5600 10685.0000 1.0000
66.5800 10593.0000 1.0000
66.6000 10569.0000 1.0000
66.6200 10498.0000 1.0000
66.6400 10700.0000 1.0000
66.6600 10590.0000 1.0000
66.6800 10758.0000 1.0000
66.7000 10735.0000 1.0000
66.7200 10462.0000 1.0000
66.7400 10330.0000 1.0000
66.7600 10410.0000 1.0000
66.7800 10395.0000 1.0000
66.8000 10383.0000 1.0000
66.8200 10338.0000 1.0000
66.8400 10342.0000 1.0000
66.8600 10099.0000 1.0000
66.8800 10355.0000 1.0000
66.9000 10277.0000 1.0000
66.9200 10356.0000 1.0000
66.9400 10322.0000 1.0000
66.9600 10343.0000 1.0000
66.9800 10456.0000 1.0000
67.0000 10369.0000 1.0000
67.0200 10363.0000 1.0000
67.0400 10374.0000 1.0000
67.0600 10270.0000 1.0000
67.0800 10467.0000 1.0000
67.1000 10274.0000 1.0000
67.1200 10443.0000 1.0000
67.1400 10411.0000 1.0000
67.1600 10207.0000 1.0000
67.1800 10171.0000 1.0000
67.2000 10274.0000 1.0000
67.2200 10453.0000 1.0000
67.2400 10199.0000 1.0000
67.2600 10459.0000 1.0000
67.2800 10409.0000 1.0000
67.3000 10304.0000 1.0000
67.3200 10254.0000 1.0000
67.3400 10365.0000 1.0000
67.3600 10460.0000 1.0000
67.3800 10322.0000 1.0000
67.4000 10386.0000 1.0000
67.4200 10287.0000 1.0000
67.4400 10256.0000 1.0000
67.4600 10307.0000 1.0000
67.4800 10526.0000 1.0000
67.5000 10550.0000 1.0000
67.5200 10340.0000 1.0000
67.5400 10430.0000 1.0000
67.5600 10539.0000 1.0000
67.5800 10786.0000 1.0000
67.6000 10545.0000 1.0000
67.6200 10663.0000 1.0000
67.6400 10809.0000 1.0000
67.6600 11045.0000 1.0000
67.6800 11388.0000 1.0000
67.7000 12095.0000 1.0000
67.7200 12841.0000 1.0000
67.7400 12470.0000 1.0000
67.7600 11612.0000 1.0000
67.7800 11173.0000 1.0000
67.8000 10785.0000 1.0000
67.8200 10648.0000 1.0000
67.8400 10727.0000 1.0000
67.8600 11040.0000 1.0000
67.8800 11240.0000 1.0000
67.9000 11570.0000 1.0000
67.9200 11956.0000 1.0000
67.9400 11486.0000 1.0000
67.9600 11284.0000 1.0000
67.9800 10912.0000 1.0000
68.0000 10770.0000 1.0000
68.0200 10885.0000 1.0000
68.0400 10878.0000 1.0000
68.0600 11245.0000 1.0000
68.0800 11620.0000 1.0000
68.1000 12597.0000 1.0000
68.1200 13432.0000 1.0000
68.1400 13236.0000 1.0000
68.1600 12406.0000 1.0000
68.1800 11927.0000 1.0000
68.2000 11909.0000 1.0000
68.2200 12208.0000 1.0000
68.2400 12224.0000 1.0000
68.2600 12335.0000 1.0000
68.2800 13133.0000 1.0000
68.3000 13931.0000 1.0000
68.3200 13651.0000 1.0000
68.3400 12509.0000 1.0000
68.3600 11842.0000 1.0000
68.3800 11368.0000 1.0000
68.4000 11273.0000 1.0000
68.4200 11560.0000 1.0000
68.4400 11233.0000 1.0000
68.4600 11363.0000 1.0000
68.4800 11491.0000 1.0000
68.5000 11519.0000 1.0000
68.5200 11030.0000 1.0000
68.5400 10704.0000 1.0000
68.5600 10649.0000 1.0000
68.5800 10534.0000 1.0000
68.6000 10253.0000 1.0000
68.6200 10471.0000 1.0000
68.6400 10395.0000 1.0000
68.6600 10413.0000 1.0000
68.6800 10472.0000 1.0000
68.7000 10344.0000 1.0000
68.7200 10345.0000 1.0000
68.7400 10398.0000 1.0000
68.7600 10406.0000 1.0000
68.7800 10222.0000 1.0000
68.8000 10365.0000 1.0000
68.8200 10294.0000 1.0000
68.8400 10386.0000 1.0000
68.8600 10432.0000 1.0000
68.8800 10407.0000 1.0000
68.9000 10372.0000 1.0000
68.9200 10361.0000 1.0000
68.9400 10379.0000 1.0000
68.9600 10208.0000 1.0000
68.9800 10152.0000 1.0000
69.0000 10507.0000 1.0000
69.0200 10327.0000 1.0000
69.0400 10310.0000 1.0000
69.0600 10052.0000 1.0000
69.0800 10448.0000 1.0000
69.1000 10484.0000 1.0000
69.1200 10258.0000 1.0000
69.1400 10436.0000 1.0000
69.1600 10404.0000 1.0000
69.1800 10141.0000 1.0000
69.2000 10352.0000 1.0000
69.2200 10166.0000 1.0000
69.2400 10320.0000 1.0000
69.2600 10182.0000 1.0000
69.2800 10303.0000 1.0000
69.3000 10246.0000 1.0000
69.3200 10251.0000 1.0000
69.3400 10389.0000 1.0000
69.3600 10198.0000 1.0000
69.3800 10387.0000 1.0000
69.4000 10220.0000 1.0000
69.4200 10251.0000 1.0000
69.4400 10190.0000 1.0000
69.4600 10381.0000 1.0000
69.4800 10414.0000 1.0000
69.5000 10395.0000 1.0000
69.5200 10535.0000 1.0000
69.5400 10568.0000 1.0000
69.5600 10695.0000 1.0000
69.5800 10565.0000 1.0000
69.6000 10702.0000 1.0000
69.6200 10587.0000 1.0000
69.6400 10456.0000 1.0000
69.6600 10545.0000 1.0000
69.6800 10418.0000 1.0000
69.7000 10350.0000 1.0000
69.7200 10358.0000 1.0000
69.7400 10620.0000 1.0000
69.7600 10443.0000 1.0000
69.7800 10506.0000 1.0000
69.8000 10570.0000 1.0000
69.8200 10215.0000 1.0000
69.8400 10339.0000 1.0000
69.8600 10289.0000 1.0000
69.8800 10461.0000 1.0000
69.9000 10406.0000 1.0000
69.9200 10317.0000 1.0000
69.9400 10277.0000 1.0000
69.9600 10241.0000 1.0000
69.9800 10275.0000 1.0000
70.0000 10250.0000 1.0000
70.0200 10356.0000 1.0000
70.0400 10234.0000 1.0000
70.0600 10214.0000 1.0000
70.0800 10431.0000 1.0000
70.1000 10390.0000 1.0000
70.1200 10295.0000 1.0000
70.1400 10261.0000 1.0000
70.1600 10428.0000 1.0000
70.1800 10472.0000 1.0000
70.2000 10375.0000 1.0000
70.2200 10411.0000 1.0000
70.2400 10195.0000 1.0000
70.2600 10098.0000 1.0000
70.2800 10305.0000 1.0000
70.3000 10280.0000 1.0000
70.3200 10164.0000 1.0000
70.3400 10313.0000 1.0000
70.3600 10201.0000 1.0000
70.3800 10191.0000 1.0000
70.4000 10337.0000 1.0000
70.4200 10237.0000 1.0000
70.4400 10286.0000 1.0000
70.4600 10314.0000 1.0000
70.4800 10170.0000 1.0000
70.5000 10232.0000 1.0000
70.5200 10120.0000 1.0000
70.5400 10071.0000 1.0000
70.5600 10153.0000 1.0000
70.5800 10341.0000 1.0000
70.6000 10207.0000 1.0000
70.6200 10368.0000 1.0000
70.6400 10378.0000 1.0000
70.6600 10474.0000 1.0000
70.6800 10262.0000 1.0000
70.7000 10443.0000 1.0000
70.7200 10234.0000 1.0000
70.7400 10390.0000 1.0000
70.7600 10113.0000 1.0000
70.7800 10301.0000 1.0000
70.8000 10373.0000 1.0000
70.8200 10204.0000 1.0000
70.8400 10149.0000 1.0000
70.8600 10339.0000 1.0000
70.8800 10304.0000 1.0000
70.9000 10378.0000 1.0000
70.9200 10378.0000 1.0000
70.9400 10260.0000 1.0000
70.9600 10264.0000 1.0000
70.9800 10530.0000 1.0000
71.0000 10500.0000 1.0000
71.0200 10622.0000 1.0000
71.0400 10664.0000 1.0000
71.0600 10529.0000 1.0000
71.0800 10518.0000 1.0000
71.1000 10431.0000 1.0000
71.1200 10606.0000 1.0000
71.1400 10545.0000 1.0000
71.1600 10449.0000 1.0000
71.1800 10462.0000 1.0000
71.2000 10495.0000 1.0000
71.2200 10459.0000 1.0000
71.2400 10621.0000 1.0000
71.2600 10491.0000 1.0000
71.2800 10391.0000 1.0000
71.3000 10409.0000 1.0000
71.3200 10424.0000 1.0000
71.3400 10255.0000 1.0000
71.3600 10528.0000 1.0000
71.3800 10501.0000 1.0000
71.4000 10418.0000 1.0000
71.4200 10440.0000 1.0000
71.4400 10395.0000 1.0000
71.4600 10208.0000 1.0000
71.4800 10364.0000 1.0000
71.5000 10139.0000 1.0000
71.5200 10500.0000 1.0000
71.5400 10340.0000 1.0000
71.5600 10488.0000 1.0000
71.5800 10460.0000 1.0000
71.6000 10557.0000 1.0000
71.6200 10168.0000 1.0000
71.6400 10519.0000 1.0000
71.6600 10453.0000 1.0000
71.6800 10516.0000 1.0000
71.7000 10342.0000 1.0000
71.7200 10379.0000 1.0000
71.7400 10450.0000 1.0000
71.7600 10571.0000 1.0000
71.7800 10647.0000 1.0000
71.8000 10553.0000 1.0000
71.8200 10697.0000 1.0000
71.8400 10716.0000 1.0000
71.8600 11147.0000 1.0000
71.8800 10988.0000 1.0000
71.9000 11164.0000 1.0000
71.9200 11264.0000 1.0000
71.9400 11294.0000 1.0000
71.9600 11320.0000 1.0000
71.9800 11238.0000 1.0000
72.0000 10917.0000 1.0000
72.0200 10583.0000 1.0000
72.0400 10892.0000 1.0000
72.0600 10806.0000 1.0000
72.0800 10805.0000 1.0000
72.1000 10866.0000 1.0000
72.1200 10941.0000 1.0000
72.1400 10926.0000 1.0000
72.1600 10819.0000 1.0000
72.1800 10812.0000 1.0000
72.2000 10576.0000 1.0000
72.2200 10746.0000 1.0000
72.2400 10683.0000 1.0000
72.2600 10594.0000 1.0000
72.2800 10706.0000 1.0000
72.3000 10651.0000 1.0000
72.3200 10696.0000 1.0000
72.3400 10412.0000 1.0000
72.3600 10362.0000 1.0000
72.3800 10449.0000 1.0000
72.4000 10388.0000 1.0000
72.4200 10371.0000 1.0000
72.4400 10208.0000 1.0000
72.4600 10547.0000 1.0000
72.4800 10372.0000 1.0000
72.5000 10505.0000 1.0000
72.5200 10484.0000 1.0000
72.5400 10272.0000 1.0000
72.5600 10301.0000 1.0000
72.5800 10223.0000 1.0000
72.6000 10344.0000 1.0000
72.6200 10424.0000 1.0000
72.6400 10338.0000 1.0000
72.6600 10134.0000 1.0000
72.6800 10300.0000 1.0000
72.7000 10328.0000 1.0000
72.7200 10109.0000 1.0000
72.7400 10455.0000 1.0000
72.7600 10432.0000 1.0000
72.7800 10372.0000 1.0000
72.8000 10310.0000 1.0000
72.8200 10115.0000 1.0000
72.8400 10303.0000 1.0000
72.8600 10251.0000 1.0000
72.8800 10320.0000 1.0000
72.9000 10379.0000 1.0000
72.9200 10273.0000 1.0000
72.9400 10142.0000 1.0000
72.9600 10109.0000 1.0000
72.9800 10235.0000 1.0000
73.0000 10291.0000 1.0000
73.0200 10287.0000 1.0000
73.0400 10228.0000 1.0000
73.0600 10347.0000 1.0000
73.0800 10309.0000 1.0000
73.1000 10423.0000 1.0000
73.1200 10355.0000 1.0000
73.1400 10287.0000 1.0000
73.1600 10241.0000 1.0000
73.1800 10256.0000 1.0000
73.2000 10137.0000 1.0000
73.2200 10267.0000 1.0000
73.2400 10238.0000 1.0000
73.2600 10264.0000 1.0000
73.2800 10443.0000 1.0000
73.3000 10428.0000 1.0000
73.3200 10462.0000 1.0000
73.3400 10307.0000 1.0000
73.3600 10231.0000 1.0000
73.3800 10204.0000 1.0000
73.4000 10645.0000 1.0000
73.4200 10628.0000 1.0000
73.4400 10728.0000 1.0000
73.4600 10714.0000 1.0000
73.4800 10612.0000 1.0000
73.5000 10563.0000 1.0000
73.5200 10584.0000 1.0000
73.5400 10529.0000 1.0000
73.5600 10678.0000 1.0000
73.5800 10661.0000 1.0000
73.6000 10358.0000 1.0000
73.6200 10396.0000 1.0000
73.6400 10571.0000 1.0000
73.6600 10596.0000 1.0000
73.6800 10502.0000 1.0000
73.7000 10306.0000 1.0000
73.7200 10402.0000 1.0000
73.7400 10460.0000 1.0000
73.7600 10277.0000 1.0000
73.7800 10318.0000 1.0000
73.8000 10449.0000 1.0000
73.8200 10435.0000 1.0000
73.8400 10346.0000 1.0000
73.8600 10495.0000 1.0000
73.8800 10562.0000 1.0000
73.9000 10304.0000 1.0000
73.9200 10394.0000 1.0000
73.9400 10497.0000 1.0000
73.9600 10528.0000 1.0000
73.9800 10543.0000 1.0000
74.0000 10612.0000 1.0000
74.0200 10597.0000 1.0000
74.0400 10801.0000 1.0000
74.0600 10759.0000 1.0000
74.0800 10596.0000 1.0000
74.1000 10854.0000 1.0000
74.1200 10652.0000 1.0000
74.1400 10647.0000 1.0000
74.1600 10578.0000 1.0000
74.1800 10572.0000 1.0000
74.2000 10547.0000 1.0000
74.2200 10521.0000 1.0000
74.2400 10665.0000 1.0000
74.2600 10733.0000 1.0000
74.2800 10695.0000 1.0000
74.3000 10752.0000 1.0000
74.3200 10461.0000 1.0000
74.3400 10495.0000 1.0000
74.3600 10532.0000 1.0000
74.3800 10506.0000 1.0000
74.4000 10618.0000 1.0000
74.4200 10447.0000 1.0000
74.4400 10684.0000 1.0000
74.4600 10415.0000 1.0000
74.4800 10533.0000 1.0000
74.5000 10641.0000 1.0000
74.5200 10343.0000 1.0000
74.5400 10499.0000 1.0000
74.5600 10223.0000 1.0000
74.5800 10447.0000 1.0000
74.6000 10367.0000 1.0000
74.6200 10288.0000 1.0000
74.6400 10300.0000 1.0000
74.6600 10348.0000 1.0000
74.6800 10280.0000 1.0000
74.7000 10334.0000 1.0000
74.7200 10339.0000 1.0000
74.7400 10516.0000 1.0000
74.7600 10378.0000 1.0000
74.7800 10528.0000 1.0000
74.8000 10547.0000 1.0000
74.8200 10248.0000 1.0000
74.8400 10352.0000 1.0000
74.8600 10445.0000 1.0000
74.8800 10364.0000 1.0000
74.9000 10362.0000 1.0000
74.9200 10314.0000 1.0000
74.9400 10564.0000 1.0000
74.9600 10383.0000 1.0000
74.9800 10447.0000 1.0000
75.0000 10579.0000 1.0000
75.0200 10364.0000 1.0000
75.0400 10591.0000 1.0000
75.0600 10607.0000 1.0000
75.0800 10479.0000 1.0000
75.1000 10604.0000 1.0000
75.1200 10547.0000 1.0000
75.1400 10499.0000 1.0000
75.1600 10481.0000 1.0000
75.1800 10374.0000 1.0000
75.2000 10603.0000 1.0000
75.2200 10689.0000 1.0000
75.2400 10695.0000 1.0000
75.2600 10628.0000 1.0000
75.2800 10557.0000 1.0000
75.3000 10551.0000 1.0000
75.3200 10677.0000 1.0000
75.3400 10887.0000 1.0000
75.3600 10955.0000 1.0000
75.3800 10763.0000 1.0000
75.4000 11102.0000 1.0000
75.4200 11259.0000 1.0000
75.4400 11410.0000 1.0000
75.4600 11317.0000 1.0000
75.4800 10991.0000 1.0000
75.5000 10968.0000 1.0000
75.5200 11088.0000 1.0000
75.5400 10949.0000 1.0000
75.5600 10988.0000 1.0000
75.5800 11110.0000 1.0000
75.6000 11393.0000 1.0000
75.6200 11667.0000 1.0000
75.6400 11532.0000 1.0000
75.6600 11588.0000 1.0000
75.6800 11264.0000 1.0000
75.7000 11161.0000 1.0000
75.7200 10732.0000 1.0000
75.7400 10876.0000 1.0000
75.7600 10665.0000 1.0000
75.7800 10502.0000 1.0000
75.8000 10729.0000 1.0000
75.8200 10851.0000 1.0000
75.8400 10909.0000 1.0000
75.8600 10919.0000 1.0000
75.8800 10876.0000 1.0000
75.9000 10683.0000 1.0000
75.9200 10599.0000 1.0000
75.9400 10569.0000 1.0000
75.9600 10453.0000 1.0000
75.9800 10518.0000 1.0000
76.0000 10364.0000 1.0000
76.0200 10332.0000 1.0000
76.0400 10361.0000 1.0000
76.0600 10419.0000 1.0000
76.0800 10376.0000 1.0000
76.1000 10463.0000 1.0000
76.1200 10339.0000 1.0000
76.1400 10267.0000 1.0000
76.1600 10413.0000 1.0000
76.1800 10294.0000 1.0000
76.2000 10442.0000 1.0000
76.2200 10499.0000 1.0000
76.2400 10237.0000 1.0000
76.2600 10262.0000 1.0000
76.2800 10533.0000 1.0000
76.3000 10311.0000 1.0000
76.3200 10316.0000 1.0000
76.3400 10266.0000 1.0000
76.3600 10388.0000 1.0000
76.3800 10345.0000 1.0000
76.4000 10208.0000 1.0000
76.4200 10454.0000 1.0000
76.4400 10427.0000 1.0000
76.4600 10478.0000 1.0000
76.4800 10415.0000 1.0000
76.5000 10451.0000 1.0000
76.5200 10489.0000 1.0000
76.5400 10343.0000 1.0000
76.5600 10667.0000 1.0000
76.5800 10372.0000 1.0000
76.6000 10451.0000 1.0000
76.6200 10391.0000 1.0000
76.6400 10412.0000 1.0000
76.6600 10441.0000 1.0000
76.6800 10245.0000 1.0000
76.7000 10569.0000 1.0000
76.7200 10589.0000 1.0000
76.7400 10537.0000 1.0000
76.7600 10611.0000 1.0000
76.7800 10512.0000 1.0000
76.8000 10504.0000 1.0000
76.8200 10657.0000 1.0000
76.8400 10528.0000 1.0000
76.8600 10583.0000 1.0000
76.8800 10641.0000 1.0000
76.9000 10629.0000 1.0000
76.9200 10758.0000 1.0000
76.9400 10547.0000 1.0000
76.9600 10569.0000 1.0000
76.9800 10364.0000 1.0000
77.0000 10387.0000 1.0000
77.0200 10498.0000 1.0000
77.0400 10553.0000 1.0000
77.0600 10627.0000 1.0000
77.0800 10549.0000 1.0000
77.1000 10499.0000 1.0000
77.1200 10562.0000 1.0000
77.1400 10463.0000 1.0000
77.1600 10457.0000 1.0000
77.1800 10592.0000 1.0000
77.2000 10653.0000 1.0000
77.2200 10552.0000 1.0000
77.2400 10587.0000 1.0000
77.2600 10496.0000 1.0000
77.2800 10448.0000 1.0000
77.3000 10498.0000 1.0000
77.3200 10436.0000 1.0000
77.3400 10441.0000 1.0000
77.3600 10542.0000 1.0000
77.3800 10447.0000 1.0000
77.4000 10494.0000 1.0000
77.4200 10680.0000 1.0000
77.4400 10480.0000 1.0000
77.4600 10537.0000 1.0000
77.4800 10567.0000 1.0000
77.5000 10552.0000 1.0000
77.5200 10508.0000 1.0000
77.5400 10538.0000 1.0000
77.5600 10570.0000 1.0000
77.5800 10759.0000 1.0000
77.6000 10795.0000 1.0000
77.6200 10753.0000 1.0000
77.6400 10908.0000 1.0000
77.6600 10969.0000 1.0000
77.6800 10867.0000 1.0000
77.7000 10903.0000 1.0000
77.7200 10699.0000 1.0000
77.7400 10706.0000 1.0000
77.7600 10663.0000 1.0000
77.7800 10670.0000 1.0000
77.8000 10634.0000 1.0000
77.8200 10518.0000 1.0000
77.8400 10681.0000 1.0000
77.8600 10698.0000 1.0000
77.8800 10752.0000 1.0000
77.9000 10680.0000 1.0000
77.9200 10883.0000 1.0000
77.9400 10706.0000 1.0000
77.9600 10486.0000 1.0000
77.9800 10629.0000 1.0000
78.0000 10568.0000 1.0000
78.0200 10514.0000 1.0000
78.0400 10445.0000 1.0000
78.0600 10569.0000 1.0000
78.0800 10320.0000 1.0000
78.1000 10311.0000 1.0000
78.1200 10431.0000 1.0000
78.1400 10446.0000 1.0000
78.1600 10498.0000 1.0000
78.1800 10336.0000 1.0000
78.2000 10389.0000 1.0000
78.2200 10371.0000 1.0000
78.2400 10441.0000 1.0000
78.2600 10386.0000 1.0000
78.2800 10425.0000 1.0000
78.3000 10557.0000 1.0000
78.3200 10350.0000 1.0000
78.3400 10450.0000 1.0000
78.3600 10364.0000 1.0000
78.3800 10455.0000 1.0000
78.4000 10503.0000 1.0000
78.4200 10462.0000 1.0000
78.4400 10440.0000 1.0000
78.4600 10417.0000 1.0000
78.4800 10436.0000 1.0000
78.5000 10402.0000 1.0000
78.5200 10403.0000 1.0000
78.5400 10556.0000 1.0000
78.5600 10217.0000 1.0000
78.5800 10453.0000 1.0000
78.6000 10453.0000 1.0000
78.6200 10453.0000 1.0000
78.6400 10618.0000 1.0000
78.6600 10507.0000 1.0000
78.6800 10455.0000 1.0000
78.7000 10589.0000 1.0000
78.7200 10613.0000 1.0000
78.7400 10429.0000 1.0000
78.7600 10610.0000 1.0000
78.7800 10574.0000 1.0000
78.8000 10941.0000 1.0000
78.8200 10436.0000 1.0000
78.8400 10427.0000 1.0000
78.8600 10428.0000 1.0000
78.8800 10456.0000 1.0000
78.9000 10622.0000 1.0000
78.9200 10445.0000 1.0000
78.9400 10423.0000 1.0000
78.9600 10566.0000 1.0000
78.9800 10438.0000 1.0000
79.0000 10553.0000 1.0000
79.0200 10518.0000 1.0000
79.0400 10591.0000 1.0000
79.0600 10525.0000 1.0000
79.0800 10601.0000 1.0000
79.1000 10692.0000 1.0000
79.1200 10623.0000 1.0000
79.1400 10592.0000 1.0000
79.1600 10544.0000 1.0000
79.1800 10485.0000 1.0000
79.2000 10492.0000 1.0000
79.2200 10445.0000 1.0000
79.2400 10604.0000 1.0000
79.2600 10528.0000 1.0000
79.2800 10640.0000 1.0000
79.3000 10574.0000 1.0000
79.3200 10551.0000 1.0000
79.3400 10492.0000 1.0000
79.3600 10462.0000 1.0000
79.3800 10429.0000 1.0000
79.4000 10436.0000 1.0000
79.4200 10420.0000 1.0000
79.4400 10373.0000 1.0000
79.4600 10477.0000 1.0000
79.4800 10434.0000 1.0000
79.5000 10531.0000 1.0000
79.5200 10556.0000 1.0000
79.5400 10413.0000 1.0000
79.5600 10424.0000 1.0000
79.5800 10432.0000 1.0000
79.6000 10366.0000 1.0000
79.6200 10430.0000 1.0000
79.6400 10476.0000 1.0000
79.6600 10390.0000 1.0000
79.6800 10464.0000 1.0000
79.7000 10619.0000 1.0000
79.7200 10442.0000 1.0000
79.7400 10468.0000 1.0000
79.7600 10551.0000 1.0000
79.7800 10577.0000 1.0000
79.8000 10727.0000 1.0000
79.8200 10912.0000 1.0000
79.8400 11106.0000 1.0000
79.8600 11359.0000 1.0000
79.8800 11273.0000 1.0000
79.9000 10970.0000 1.0000
79.9200 10706.0000 1.0000
79.9400 10634.0000 1.0000
79.9600 10784.0000 1.0000
79.9800 10709.0000 1.0000
80.0000 10764.0000 1.0000
80.0200 10913.0000 1.0000
80.0400 10868.0000 1.0000
80.0600 10810.0000 1.0000
80.0800 10789.0000 1.0000
80.1000 10851.0000 1.0000
80.1200 10953.0000 1.0000
80.1400 11024.0000 1.0000
80.1600 10695.0000 1.0000
80.1800 10526.0000 1.0000
80.2000 10551.0000 1.0000
80.2200 10525.0000 1.0000
80.2400 10538.0000 1.0000
80.2600 10599.0000 1.0000
80.2800 10569.0000 1.0000
80.3000 10590.0000 1.0000
80.3200 10397.0000 1.0000
80.3400 10450.0000 1.0000
80.3600 10497.0000 1.0000
80.3800 10377.0000 1.0000
80.4000 10629.0000 1.0000
80.4200 10316.0000 1.0000
80.4400 10417.0000 1.0000
80.4600 10376.0000 1.0000
80.4800 10596.0000 1.0000
80.5000 10638.0000 1.0000
80.5200 10560.0000 1.0000
80.5400 10748.0000 1.0000
80.5600 10795.0000 1.0000
80.5800 10848.0000 1.0000
80.6000 10951.0000 1.0000
80.6200 10587.0000 1.0000
80.6400 11024.0000 1.0000
80.6600 11060.0000 1.0000
80.6800 11082.0000 1.0000
80.7000 10919.0000 1.0000
80.7200 10990.0000 1.0000
80.7400 10881.0000 1.0000
80.7600 10688.0000 1.0000
80.7800 10719.0000 1.0000
80.8000 10701.0000 1.0000
80.8200 10547.0000 1.0000
80.8400 10780.0000 1.0000
80.8600 10775.0000 1.0000
80.8800 10597.0000 1.0000
80.9000 10708.0000 1.0000
80.9200 10735.0000 1.0000
80.9400 10727.0000 1.0000
80.9600 10831.0000 1.0000
80.9800 10796.0000 1.0000
81.0000 10562.0000 1.0000
81.0200 10789.0000 1.0000
81.0400 10660.0000 1.0000
81.0600 10702.0000 1.0000
81.0800 10636.0000 1.0000
81.1000 10895.0000 1.0000
81.1200 11090.0000 1.0000
81.1400 11179.0000 1.0000
81.1600 11324.0000 1.0000
81.1800 10939.0000 1.0000
81.2000 10740.0000 1.0000
81.2200 10525.0000 1.0000
81.2400 10551.0000 1.0000
81.2600 10496.0000 1.0000
81.2800 10578.0000 1.0000
81.3000 10504.0000 1.0000
81.3200 10673.0000 1.0000
81.3400 10682.0000 1.0000
81.3600 10819.0000 1.0000
81.3800 10846.0000 1.0000
81.4000 10981.0000 1.0000
81.4200 11155.0000 1.0000
81.4400 11239.0000 1.0000
81.4600 11320.0000 1.0000
81.4800 11102.0000 1.0000
81.5000 10880.0000 1.0000
81.5200 10627.0000 1.0000
81.5400 10716.0000 1.0000
81.5600 10583.0000 1.0000
81.5800 10659.0000 1.0000
81.6000 10525.0000 1.0000
81.6200 10524.0000 1.0000
81.6400 10479.0000 1.0000
81.6600 10564.0000 1.0000
81.6800 10761.0000 1.0000
81.7000 10792.0000 1.0000
81.7200 10688.0000 1.0000
81.7400 10669.0000 1.0000
81.7600 10476.0000 1.0000
81.7800 10409.0000 1.0000
81.8000 10532.0000 1.0000
81.8200 10557.0000 1.0000
81.8400 10357.0000 1.0000
81.8600 10545.0000 1.0000
81.8800 10682.0000 1.0000
81.9000 10455.0000 1.0000
81.9200 10489.0000 1.0000
81.9400 10432.0000 1.0000
81.9600 10366.0000 1.0000
81.9800 10574.0000 1.0000
82.0000 10492.0000 1.0000
82.0200 10499.0000 1.0000
82.0400 10511.0000 1.0000
82.0600 10628.0000 1.0000
82.0800 10452.0000 1.0000
82.1000 10487.0000 1.0000
82.1200 10523.0000 1.0000
82.1400 10347.0000 1.0000
82.1600 10446.0000 1.0000
82.1800 10567.0000 1.0000
82.2000 10387.0000 1.0000
82.2200 10492.0000 1.0000
82.2400 10311.0000 1.0000
82.2600 10416.0000 1.0000
82.2800 10318.0000 1.0000
82.3000 10502.0000 1.0000
82.3200 10413.0000 1.0000
82.3400 10508.0000 1.0000
82.3600 10503.0000 1.0000
82.3800 10422.0000 1.0000
82.4000 10637.0000 1.0000
82.4200 10399.0000 1.0000
82.4400 10394.0000 1.0000
82.4600 10416.0000 1.0000
82.4800 10446.0000 1.0000
82.5000 10435.0000 1.0000
82.5200 10395.0000 1.0000
82.5400 10303.0000 1.0000
82.5600 10337.0000 1.0000
82.5800 10344.0000 1.0000
82.6000 10392.0000 1.0000
82.6200 10306.0000 1.0000
82.6400 10419.0000 1.0000
82.6600 10404.0000 1.0000
82.6800 10625.0000 1.0000
82.7000 10289.0000 1.0000
82.7200 10491.0000 1.0000
82.7400 10439.0000 1.0000
82.7600 10509.0000 1.0000
82.7800 10512.0000 1.0000
82.8000 10589.0000 1.0000
82.8200 10650.0000 1.0000
82.8400 10801.0000 1.0000
82.8600 10806.0000 1.0000
82.8800 10629.0000 1.0000
82.9000 10700.0000 1.0000
82.9200 10914.0000 1.0000
82.9400 11005.0000 1.0000
82.9600 10764.0000 1.0000
82.9800 10560.0000 1.0000
83.0000 10830.0000 1.0000
83.0200 10658.0000 1.0000
83.0400 10596.0000 1.0000
83.0600 10583.0000 1.0000
83.0800 10549.0000 1.0000
83.1000 10644.0000 1.0000
83.1200 10423.0000 1.0000
83.1400 10688.0000 1.0000
83.1600 10657.0000 1.0000
83.1800 10392.0000 1.0000
83.2000 10560.0000 1.0000
83.2200 10581.0000 1.0000
83.2400 10705.0000 1.0000
83.2600 10541.0000 1.0000
83.2800 10489.0000 1.0000
83.3000 10500.0000 1.0000
83.3200 10372.0000 1.0000
83.3400 10531.0000 1.0000
83.3600 10291.0000 1.0000
83.3800 10387.0000 1.0000
83.4000 10334.0000 1.0000
83.4200 10438.0000 1.0000
83.4400 10542.0000 1.0000
83.4600 10199.0000 1.0000
83.4800 10334.0000 1.0000
83.5000 10204.0000 1.0000
83.5200 10326.0000 1.0000
83.5400 10180.0000 1.0000
83.5600 10327.0000 1.0000
83.5800 10442.0000 1.0000
83.6000 10472.0000 1.0000
83.6200 10314.0000 1.0000
83.6400 10178.0000 1.0000
83.6600 10392.0000 1.0000
83.6800 10379.0000 1.0000
83.7000 10662.0000 1.0000
83.7200 10534.0000 1.0000
83.7400 10632.0000 1.0000
83.7600 10740.0000 1.0000
83.7800 10931.0000 1.0000
83.8000 11225.0000 1.0000
83.8200 11082.0000 1.0000
83.8400 11058.0000 1.0000
83.8600 10639.0000 1.0000
83.8800 10497.0000 1.0000
83.9000 10581.0000 1.0000
83.9200 10468.0000 1.0000
83.9400 10285.0000 1.0000
83.9600 10274.0000 1.0000
83.9800 10432.0000 1.0000
84.0000 10410.0000 1.0000
84.0200 10571.0000 1.0000
84.0400 10664.0000 1.0000
84.0600 10815.0000 1.0000
84.0800 10736.0000 1.0000
84.1000 10440.0000 1.0000
84.1200 10459.0000 1.0000
84.1400 10504.0000 1.0000
84.1600 10225.0000 1.0000
84.1800 10355.0000 1.0000
84.2000 10396.0000 1.0000
84.2200 10455.0000 1.0000
84.2400 10496.0000 1.0000
84.2600 10243.0000 1.0000
84.2800 10464.0000 1.0000
84.3000 10318.0000 1.0000
84.3200 10369.0000 1.0000
84.3400 10505.0000 1.0000
84.3600 10505.0000 1.0000
84.3800 10408.0000 1.0000
84.4000 10220.0000 1.0000
84.4200 10196.0000 1.0000
84.4400 10537.0000 1.0000
84.4600 10342.0000 1.0000
84.4800 10384.0000 1.0000
84.5000 10264.0000 1.0000
84.5200 10315.0000 1.0000
84.5400 10408.0000 1.0000
84.5600 10374.0000 1.0000
84.5800 10441.0000 1.0000
84.6000 10338.0000 1.0000
84.6200 10430.0000 1.0000
84.6400 10314.0000 1.0000
84.6600 10349.0000 1.0000
84.6800 10475.0000 1.0000
84.7000 10566.0000 1.0000
84.7200 10550.0000 1.0000
84.7400 10518.0000 1.0000
84.7600 10582.0000 1.0000
84.7800 10631.0000 1.0000
84.8000 10518.0000 1.0000
84.8200 10696.0000 1.0000
84.8400 10671.0000 1.0000
84.8600 10793.0000 1.0000
84.8800 11143.0000 1.0000
84.9000 11252.0000 1.0000
84.9200 11274.0000 1.0000
84.9400 11235.0000 1.0000
84.9600 10958.0000 1.0000
84.9800 10827.0000 1.0000
85.0000 10585.0000 1.0000
85.0200 10684.0000 1.0000
85.0400 10554.0000 1.0000
85.0600 10499.0000 1.0000
85.0800 10582.0000 1.0000
85.1000 10774.0000 1.0000
85.1200 10790.0000 1.0000
85.1400 10746.0000 1.0000
85.1600 10810.0000 1.0000
85.1800 10862.0000 1.0000
85.2000 10944.0000 1.0000
85.2200 10632.0000 1.0000
85.2400 10588.0000 1.0000
85.2600 10522.0000 1.0000
85.2800 10553.0000 1.0000
85.3000 10582.0000 1.0000
85.3200 10539.0000 1.0000
85.3400 10340.0000 1.0000
85.3600 10301.0000 1.0000
85.3800 10146.0000 1.0000
85.4000 10445.0000 1.0000
85.4200 10300.0000 1.0000
85.4400 10389.0000 1.0000
85.4600 10222.0000 1.0000
85.4800 10540.0000 1.0000
85.5000 10294.0000 1.0000
85.5200 10435.0000 1.0000
85.5400 10287.0000 1.0000
85.5600 10318.0000 1.0000
85.5800 10349.0000 1.0000
85.6000 10433.0000 1.0000
85.6200 10244.0000 1.0000
85.6400 10238.0000 1.0000
85.6600 10452.0000 1.0000
85.6800 10370.0000 1.0000
85.7000 10404.0000 1.0000
85.7200 10332.0000 1.0000
85.7400 10255.0000 1.0000
85.7600 10299.0000 1.0000
85.7800 10235.0000 1.0000
85.8000 10315.0000 1.0000
85.8200 10310.0000 1.0000
85.8400 10371.0000 1.0000
85.8600 10329.0000 1.0000
85.8800 10396.0000 1.0000
85.9000 10336.0000 1.0000
85.9200 10449.0000 1.0000
85.9400 10321.0000 1.0000
85.9600 10493.0000 1.0000
85.9800 10289.0000 1.0000
86.0000 10277.0000 1.0000
86.0200 10036.0000 1.0000
86.0400 10264.0000 1.0000
86.0600 10444.0000 1.0000
86.0800 10369.0000 1.0000
86.1000 10332.0000 1.0000
86.1200 10424.0000 1.0000
86.1400 10179.0000 1.0000
86.1600 10143.0000 1.0000
86.1800 10316.0000 1.0000
86.2000 10369.0000 1.0000
86.2200 10446.0000 1.0000
86.2400 10405.0000 1.0000
86.2600 10454.0000 1.0000
86.2800 10381.0000 1.0000
86.3000 10403.0000 1.0000
86.3200 10240.0000 1.0000
86.3400 10409.0000 1.0000
86.3600 10382.0000 1.0000
86.3800 10255.0000 1.0000
86.4000 10248.0000 1.0000
86.4200 10337.0000 1.0000
86.4400 10417.0000 1.0000
86.4600 10401.0000 1.0000
86.4800 10444.0000 1.0000
86.5000 10433.0000 1.0000
86.5200 10299.0000 1.0000
86.5400 10308.0000 1.0000
86.5600 10372.0000 1.0000
86.5800 10317.0000 1.0000
86.6000 10343.0000 1.0000
86.6200 10233.0000 1.0000
86.6400 10321.0000 1.0000
86.6600 10532.0000 1.0000
86.6800 10516.0000 1.0000
86.7000 10358.0000 1.0000
86.7200 10480.0000 1.0000
86.7400 10383.0000 1.0000
86.7600 10222.0000 1.0000
86.7800 10426.0000 1.0000
86.8000 10582.0000 1.0000
86.8200 10456.0000 1.0000
86.8400 10600.0000 1.0000
86.8600 10543.0000 1.0000
86.8800 10547.0000 1.0000
86.9000 10673.0000 1.0000
86.9200 10556.0000 1.0000
86.9400 10439.0000 1.0000
86.9600 10285.0000 1.0000
86.9800 10533.0000 1.0000
87.0000 10441.0000 1.0000
87.0200 10466.0000 1.0000
87.0400 10539.0000 1.0000
87.0600 10491.0000 1.0000
87.0800 10433.0000 1.0000
87.1000 10473.0000 1.0000
87.1200 10472.0000 1.0000
87.1400 10351.0000 1.0000
87.1600 10473.0000 1.0000
87.1800 10624.0000 1.0000
87.2000 10398.0000 1.0000
87.2200 10534.0000 1.0000
87.2400 10695.0000 1.0000
87.2600 10326.0000 1.0000
87.2800 10274.0000 1.0000
87.3000 10234.0000 1.0000
87.3200 10338.0000 1.0000
87.3400 10428.0000 1.0000
87.3600 10385.0000 1.0000
87.3800 10443.0000 1.0000
87.4000 10514.0000 1.0000
87.4200 10343.0000 1.0000
87.4400 10433.0000 1.0000
87.4600 10356.0000 1.0000
87.4800 10466.0000 1.0000
87.5000 10201.0000 1.0000
87.5200 10429.0000 1.0000
87.5400 10370.0000 1.0000
87.5600 10295.0000 1.0000
87.5800 10426.0000 1.0000
87.6000 10116.0000 1.0000
87.6200 10447.0000 1.0000
87.6400 10271.0000 1.0000
87.6600 10278.0000 1.0000
87.6800 10381.0000 1.0000
87.7000 10446.0000 1.0000
87.7200 10198.0000 1.0000
87.7400 10141.0000 1.0000
87.7600 10547.0000 1.0000
87.7800 10336.0000 1.0000
87.8000 10402.0000 1.0000
87.8200 10240.0000 1.0000
87.8400 10308.0000 1.0000
87.8600 10524.0000 1.0000
87.8800 10335.0000 1.0000
87.9000 10228.0000 1.0000
87.9200 10324.0000 1.0000
87.9400 10464.0000 1.0000
87.9600 10367.0000 1.0000
87.9800 10235.0000 1.0000
88.0000 10322.0000 1.0000
88.0200 10305.0000 1.0000
88.0400 10310.0000 1.0000
88.0600 10315.0000 1.0000
88.0800 10349.0000 1.0000
88.1000 10343.0000 1.0000
88.1200 10514.0000 1.0000
88.1400 10478.0000 1.0000
88.1600 10552.0000 1.0000
88.1800 10369.0000 1.0000
88.2000 10376.0000 1.0000
88.2200 10493.0000 1.0000
88.2400 10385.0000 1.0000
88.2600 10385.0000 1.0000
88.2800 10384.0000 1.0000
88.3000 10477.0000 1.0000
88.3200 10449.0000 1.0000
88.3400 10483.0000 1.0000
88.3600 10279.0000 1.0000
88.3800 10406.0000 1.0000
88.4000 10377.0000 1.0000
88.4200 10499.0000 1.0000
88.4400 10522.0000 1.0000
88.4600 10539.0000 1.0000
88.4800 10990.0000 1.0000
88.5000 11115.0000 1.0000
88.5200 11070.0000 1.0000
88.5400 11072.0000 1.0000
88.5600 11068.0000 1.0000
88.5800 11077.0000 1.0000
88.6000 10994.0000 1.0000
88.6200 10767.0000 1.0000
88.6400 10866.0000 1.0000
88.6600 10668.0000 1.0000
88.6800 10625.0000 1.0000
88.7000 10678.0000 1.0000
88.7200 10461.0000 1.0000
88.7400 10640.0000 1.0000
88.7600 10741.0000 1.0000
88.7800 10719.0000 1.0000
88.8000 10709.0000 1.0000
88.8200 10674.0000 1.0000
88.8400 10829.0000 1.0000
88.8600 10612.0000 1.0000
88.8800 10609.0000 1.0000
88.9000 10675.0000 1.0000
88.9200 10588.0000 1.0000
88.9400 10591.0000 1.0000
88.9600 10498.0000 1.0000
88.9800 10456.0000 1.0000
89.0000 10595.0000 1.0000
89.0200 10512.0000 1.0000
89.0400 10460.0000 1.0000
89.0600 10480.0000 1.0000
89.0800 10379.0000 1.0000
89.1000 10521.0000 1.0000
89.1200 10390.0000 1.0000
89.1400 10358.0000 1.0000
89.1600 10456.0000 1.0000
89.1800 10156.0000 1.0000
89.2000 10488.0000 1.0000
89.2200 10304.0000 1.0000
89.2400 10525.0000 1.0000
89.2600 10140.0000 1.0000
89.2800 10441.0000 1.0000
89.3000 10287.0000 1.0000
89.3200 10392.0000 1.0000
89.3400 10399.0000 1.0000
89.3600 10486.0000 1.0000
89.3800 10292.0000 1.0000
89.4000 10412.0000 1.0000
89.4200 10469.0000 1.0000
89.4400 10481.0000 1.0000
89.4600 10341.0000 1.0000
89.4800 10516.0000 1.0000
89.5000 10455.0000 1.0000
89.5200 10490.0000 1.0000
89.5400 10555.0000 1.0000
89.5600 10447.0000 1.0000
89.5800 10478.0000 1.0000
89.6000 10796.0000 1.0000
89.6200 10496.0000 1.0000
89.6400 10669.0000 1.0000
89.6600 10745.0000 1.0000
89.6800 10832.0000 1.0000
89.7000 10904.0000 1.0000
89.7200 10954.0000 1.0000
89.7400 10967.0000 1.0000
89.7600 10903.0000 1.0000
89.7800 10879.0000 1.0000
89.8000 11022.0000 1.0000
89.8200 10627.0000 1.0000
89.8400 10838.0000 1.0000
89.8600 10757.0000 1.0000
89.8800 10765.0000 1.0000
89.9000 10861.0000 1.0000
89.9200 10708.0000 1.0000
89.9400 10658.0000 1.0000
89.9600 10737.0000 1.0000
89.9800 10764.0000 1.0000
90.0000 10871.0000 1.0000
*RAS_INT_END
*RAS_TEMPERATURE_START
*RAS_TEMPERATURE_END
*RAS_DATA_END
