*RAS_DATA_START
*RAS_HEADER_START
*DISP_FMT_X "%.2f"
*DISP_FMT_Y "%.0f"
*DISP_FULLSCALE "25153.0000000000"
*DISP_LINE_COLOR "255.0000000000"
*DISP_LINE_STYLE "0.0000000000"
*DISP_LINE_WIDTH "0.2500000000"
*DISP_NOTE "測定データ-5"
*DISP_OFFSET_Y "0.0000000000"
*DISP_PEAKSEARCH_UNIT_Y "cps"
*DISP_RANGE_BOTTOM "0.0000000000"
*DISP_RANGE_LEFT "20.0000000000"
*DISP_RANGE_LOGCUTOFF "0.0100000000"
*DISP_RANGE_RIGHT "90.0000000000"
*DISP_RANGE_TOP "25153.0000000000"
*DISP_SCALE_MODE_Y "0.0000000000"
*DISP_TAB_NAME "2θ/θ"
*DISP_TITLE_Y "強度"
*DISP_UNIT_Y "cps"
*DISP_WINDOW_NAME "MSG_MACROENGINE"
*FILE_COMMENT " "
*FILE_MD5 ""
*FILE_MEMO " "
*FILE_OPERATOR "Administrator"
*FILE_SAMPLE " "
*FILE_TYPE "RAS_RAW"
*FILE_USERGROUP "システムマネージャ"
*FILE_VERSION "1.0000000000"
*HW_ATTACHMENT_ID "ATT0025"
*HW_ATTACHMENT_NAME "標準|Standard"
*HW_COUNTER_ID-0 "CUT0025"
*HW_COUNTER_ID-1 "CUT0020"
*HW_COUNTER_ID-2 "CUT0020"
*HW_COUNTER_ID-3 "CSL0021"
*HW_COUNTER_ID-4 "CMC0021"
*HW_COUNTER_NAME-0 "D/teX Ultra|D/teX Ultra"
*HW_COUNTER_NAME-1 "None|None"
*HW_COUNTER_NAME-2 "None|None"
*HW_COUNTER_NAME-3 "BBM|BBM"
*HW_COUNTER_NAME-4 "検出器モノクロメータ|Detector monochromator"
*HW_COUNTER_SELECT_NAME "D/teX Ultra|D/teX Ultra"
*HW_GONIOMETER_ID "GON0023"
*HW_GONIOMETER_NAME "SmartLab|SmartLab"
*HW_GONIOMETER_RADIUS-0 "90.0"
*HW_GONIOMETER_RADIUS-1 "114.0"
*HW_GONIOMETER_RADIUS-2 "190.0"
*HW_GONIOMETER_RADIUS-3 "300.0"
*HW_GONIOMETER_RADIUS-4 "187.0"
*HW_GONIOMETER_RADIUS-5 "300.0"
*HW_GONIOMETER_RADIUS-6 "113.0"
*HW_GONIOMETER_RADIUS-7 "331.0"
*HW_I_OPT_ID-0 "CBO0021"
*HW_I_OPT_ID-1 "ICR0023"
*HW_I_OPT_ID-2 "ISL0021"
*HW_I_OPT_ID-3 "ISO0021"
*HW_I_OPT_ID-4 "IAD0021"
*HW_I_OPT_ID-5 "IPR0001"
*HW_I_OPT_NAME-0 "CBOユニット|CBO unit"
*HW_I_OPT_NAME-1 "標準入射光学ユニット|Standard incident optical unit"
*HW_I_OPT_NAME-2 "標準入射スリットボックス|Standard incident slit box"
*HW_I_OPT_NAME-3 "入射平行スリット|Incident parallel slit"
*HW_I_OPT_NAME-4 "長手制限スリット|Length limiting slit"
*HW_I_OPT_NAME-5 "None|None"
*HW_R_ATTENUATER_AUTOMODE "0"
*HW_R_OPT_ID-0 "RSS0021"
*HW_R_OPT_ID-1 "RCR0023"
*HW_R_OPT_ID-2 "RSO0021"
*HW_R_OPT_ID-3 "RRS0021"
*HW_R_OPT_ID-4 "ATN0021"
*HW_R_OPT_ID-5 "RFL0021"
*HW_R_OPT_ID-6 "RAD0021"
*HW_R_OPT_NAME-0 "標準受光スリットボックス1|Standard receiving slit box # 1"
*HW_R_OPT_NAME-1 "標準受光光学ユニット1|Standard receiving unit # 1"
*HW_R_OPT_NAME-2 "標準受光光学ユニット2|Standard receiving optical unit # 2"
*HW_R_OPT_NAME-3 "標準受光スリットボックス2|Standard receiving slit box # 2"
*HW_R_OPT_NAME-4 "標準アッテネータ|Standard Attenuator"
*HW_R_OPT_NAME-5 "Cu Kβ|Cu K-beta"
*HW_R_OPT_NAME-6 "調整用受光スリット|Alignment receiving slit"
*HW_SAMPLE_HOLDER_ID "SMP0023"
*HW_SAMPLE_HOLDER_NAME "標準Zステージ|Standard Z stage"
*HW_XG_CURRENT_MAX "50"
*HW_XG_CURRENT_MIN "2"
*HW_XG_CURRENT_RESOLUTION "2"
*HW_XG_CURRENT_UNIT "mA"
*HW_XG_FOCUS "1mm x 10mm"
*HW_XG_FOCUS_TYPE "Normal"
*HW_XG_ID ""
*HW_XG_NAME "3kW 封入管(ID:1200)|3kW Sealed tube(ID:1200)"
*HW_XG_TARGET_ATOMIC_NUMBER "29.0000000000"
*HW_XG_TARGET_NAME "Cu"
*HW_XG_TYPE "Hermetic"
*HW_XG_VOLTAGE_MAX "60"
*HW_XG_VOLTAGE_MIN "20"
*HW_XG_VOLTAGE_RESOLUTION "2"
*HW_XG_VOLTAGE_UNIT "kV"
*HW_XG_WATT_MAX "2"
*HW_XG_WATT_UNIT "kW"
*HW_XG_WAVE_LENGTH_ALPHA1 "1.540593"
*HW_XG_WAVE_LENGTH_ALPHA2 "1.544414"
*HW_XG_WAVE_LENGTH_BETA "1.392250"
*MEAS_COND_AXIS_NAME-0 "2θ/θ"
*MEAS_COND_AXIS_NAME-1 "2θ"
*MEAS_COND_AXIS_NAME-2 "ω"
*MEAS_COND_AXIS_NAME-3 "Z"
*MEAS_COND_AXIS_NAME-4 "2θ/ω"
*MEAS_COND_AXIS_NAME-5 "θs"
*MEAS_COND_AXIS_NAME-6 "θd"
*MEAS_COND_AXIS_NAME-7 "Ts"
*MEAS_COND_AXIS_NAME-8 "CBO選択スリット"
*MEAS_COND_AXIS_NAME-9 "M"
*MEAS_COND_AXIS_NAME-10 "入射平行スリット"
*MEAS_COND_AXIS_NAME-11 "入射スリット"
*MEAS_COND_AXIS_NAME-12 ""
*MEAS_COND_AXIS_NAME-13 "Zs"
*MEAS_COND_AXIS_NAME-14 "入射光学素子"
*MEAS_COND_AXIS_NAME-15 "長手制限スリット"
*MEAS_COND_AXIS_NAME-16 "センタースリット"
*MEAS_COND_AXIS_NAME-17 "フィルター"
*MEAS_COND_AXIS_NAME-18 "受光スリット1"
*MEAS_COND_AXIS_NAME-19 "受光スリット2"
*MEAS_COND_AXIS_NAME-20 "受光光学素子"
*MEAS_COND_AXIS_NAME-21 "受光平行スリット"
*MEAS_COND_AXIS_NAME-22 "調整用受光スリット"
*MEAS_COND_AXIS_NAME-23 ""
*MEAS_COND_AXIS_NAME-24 ""
*MEAS_COND_AXIS_NAME-25 "Zd"
*MEAS_COND_AXIS_NAME-26 "アッテネータ"
*MEAS_COND_AXIS_NAME-27 "検出器モノクロメータ"
*MEAS_COND_AXIS_NAME-28 "モノクロメータスリット"
*MEAS_COND_AXIS_NAME-29 "プライマリビーム"
*MEAS_COND_AXIS_NAME-30 "PHA"
*MEAS_COND_AXIS_NAME_INTERNAL-0 "TwoThetaTheta"
*MEAS_COND_AXIS_NAME_INTERNAL-1 "TwoTheta"
*MEAS_COND_AXIS_NAME_INTERNAL-2 "Omega"
*MEAS_COND_AXIS_NAME_INTERNAL-3 "Z"
*MEAS_COND_AXIS_NAME_INTERNAL-4 "TwoThetaOmega"
*MEAS_COND_AXIS_NAME_INTERNAL-5 "ThetaS"
*MEAS_COND_AXIS_NAME_INTERNAL-6 "ThetaD"
*MEAS_COND_AXIS_NAME_INTERNAL-7 "Ts"
*MEAS_COND_AXIS_NAME_INTERNAL-8 "CBO"
*MEAS_COND_AXIS_NAME_INTERNAL-9 "CBO-M"
*MEAS_COND_AXIS_NAME_INTERNAL-10 "IncidentSollerSlit"
*MEAS_COND_AXIS_NAME_INTERNAL-11 "IncidentSlitBox"
*MEAS_COND_AXIS_NAME_INTERNAL-12 "IncidentSlitBox-_Axis"
*MEAS_COND_AXIS_NAME_INTERNAL-13 "Zs"
*MEAS_COND_AXIS_NAME_INTERNAL-14 "IncidentMonochromator"
*MEAS_COND_AXIS_NAME_INTERNAL-15 "IncidentAxdSlit"
*MEAS_COND_AXIS_NAME_INTERNAL-16 "CenterSlit"
*MEAS_COND_AXIS_NAME_INTERNAL-17 "Filter"
*MEAS_COND_AXIS_NAME_INTERNAL-18 "ReceivingSlitBox1"
*MEAS_COND_AXIS_NAME_INTERNAL-19 "ReceivingSlitBox2"
*MEAS_COND_AXIS_NAME_INTERNAL-20 "ReceivingOptics"
*MEAS_COND_AXIS_NAME_INTERNAL-21 "ReceivingSollerSlit"
*MEAS_COND_AXIS_NAME_INTERNAL-22 "ReceivingAxdSlit"
*MEAS_COND_AXIS_NAME_INTERNAL-23 "ReceivingSlitBox1-_Axis"
*MEAS_COND_AXIS_NAME_INTERNAL-24 "ReceivingSlitBox2-_Axis"
*MEAS_COND_AXIS_NAME_INTERNAL-25 "ReceivingSlitBox2-Zd"
*MEAS_COND_AXIS_NAME_INTERNAL-26 "Attenuator"
*MEAS_COND_AXIS_NAME_INTERNAL-27 "CounterMonochromator"
*MEAS_COND_AXIS_NAME_INTERNAL-28 "CounterSlit"
*MEAS_COND_AXIS_NAME_INTERNAL-29 "IncidentPrimary"
*MEAS_COND_AXIS_NAME_INTERNAL-30 "PHA"
*MEAS_COND_AXIS_NAME_MAGICNO-0 "83951616.0000000000"
*MEAS_COND_AXIS_NAME_MAGICNO-1 "268632064.0000000000"
*MEAS_COND_AXIS_NAME_MAGICNO-2 "268500992.0000000000"
*MEAS_COND_AXIS_NAME_MAGICNO-3 "285278208.0000000000"
*MEAS_COND_AXIS_NAME_MAGICNO-4 "83951616.0000000000"
*MEAS_COND_AXIS_NAME_MAGICNO-5 "131072.0000000000"
*MEAS_COND_AXIS_NAME_MAGICNO-6 "131072.0000000000"
*MEAS_COND_AXIS_NAME_MAGICNO-7 "318898176.0000000000"
*MEAS_COND_AXIS_NAME_MAGICNO-8 "20971521.0000000000"
*MEAS_COND_AXIS_NAME_MAGICNO-9 "285343744.0000000000"
*MEAS_COND_AXIS_NAME_MAGICNO-10 "20971521.0000000000"
*MEAS_COND_AXIS_NAME_MAGICNO-11 "22020097.0000000000"
*MEAS_COND_AXIS_NAME_MAGICNO-12 "25165824.0000000000"
*MEAS_COND_AXIS_NAME_MAGICNO-13 "318898176.0000000000"
*MEAS_COND_AXIS_NAME_MAGICNO-14 "1.0000000000"
*MEAS_COND_AXIS_NAME_MAGICNO-15 "20971521.0000000000"
*MEAS_COND_AXIS_NAME_MAGICNO-16 "20971521.0000000000"
*MEAS_COND_AXIS_NAME_MAGICNO-17 "20971521.0000000000"
*MEAS_COND_AXIS_NAME_MAGICNO-18 "23068673.0000000000"
*MEAS_COND_AXIS_NAME_MAGICNO-19 "23068673.0000000000"
*MEAS_COND_AXIS_NAME_MAGICNO-20 "20971521.0000000000"
*MEAS_COND_AXIS_NAME_MAGICNO-21 "20971521.0000000000"
*MEAS_COND_AXIS_NAME_MAGICNO-22 "20971521.0000000000"
*MEAS_COND_AXIS_NAME_MAGICNO-23 "25165824.0000000000"
*MEAS_COND_AXIS_NAME_MAGICNO-24 "25165824.0000000000"
*MEAS_COND_AXIS_NAME_MAGICNO-25 "285343744.0000000000"
*MEAS_COND_AXIS_NAME_MAGICNO-26 "17301505.0000000000"
*MEAS_COND_AXIS_NAME_MAGICNO-27 "20971521.0000000000"
*MEAS_COND_AXIS_NAME_MAGICNO-28 "20971521.0000000000"
*MEAS_COND_AXIS_NAME_MAGICNO-29 "20971521.0000000000"
*MEAS_COND_AXIS_NAME_MAGICNO-30 "0.0000000000"
*MEAS_COND_AXIS_OFFSET-0 "-"
*MEAS_COND_AXIS_OFFSET-1 "-0.1081000000"
*MEAS_COND_AXIS_OFFSET-2 "0.3758000000"
*MEAS_COND_AXIS_OFFSET-3 "-"
*MEAS_COND_AXIS_OFFSET-4 "-"
*MEAS_COND_AXIS_OFFSET-5 "0.3758000000"
*MEAS_COND_AXIS_OFFSET-6 "-0.4839000000"
*MEAS_COND_AXIS_OFFSET-7 "-"
*MEAS_COND_AXIS_OFFSET-8 "-"
*MEAS_COND_AXIS_OFFSET-9 "-"
*MEAS_COND_AXIS_OFFSET-10 "-"
*MEAS_COND_AXIS_OFFSET-11 "-"
*MEAS_COND_AXIS_OFFSET-12 "-"
*MEAS_COND_AXIS_OFFSET-13 "-"
*MEAS_COND_AXIS_OFFSET-14 "-"
*MEAS_COND_AXIS_OFFSET-15 "-"
*MEAS_COND_AXIS_OFFSET-16 "-"
*MEAS_COND_AXIS_OFFSET-17 "-"
*MEAS_COND_AXIS_OFFSET-18 "-"
*MEAS_COND_AXIS_OFFSET-19 "-"
*MEAS_COND_AXIS_OFFSET-20 "-"
*MEAS_COND_AXIS_OFFSET-21 "-"
*MEAS_COND_AXIS_OFFSET-22 "-"
*MEAS_COND_AXIS_OFFSET-23 "-"
*MEAS_COND_AXIS_OFFSET-24 "-"
*MEAS_COND_AXIS_OFFSET-25 "-"
*MEAS_COND_AXIS_OFFSET-26 "-"
*MEAS_COND_AXIS_OFFSET-27 "-"
*MEAS_COND_AXIS_OFFSET-28 "-"
*MEAS_COND_AXIS_OFFSET-29 "-"
*MEAS_COND_AXIS_OFFSET-30 "-"
*MEAS_COND_AXIS_POSITION-0 "0.0000000000"
*MEAS_COND_AXIS_POSITION-1 "0.0000000000"
*MEAS_COND_AXIS_POSITION-2 "0.0000000000"
*MEAS_COND_AXIS_POSITION-3 "-0.5500000000"
*MEAS_COND_AXIS_POSITION-4 "0.0000000000"
*MEAS_COND_AXIS_POSITION-5 "0.0000000000"
*MEAS_COND_AXIS_POSITION-6 "0.0000000000"
*MEAS_COND_AXIS_POSITION-7 "-0.4278800000"
*MEAS_COND_AXIS_POSITION-8 "BB"
*MEAS_COND_AXIS_POSITION-9 "0.0000000000"
*MEAS_COND_AXIS_POSITION-10 "Soller_slit_5.0deg"
*MEAS_COND_AXIS_POSITION-11 "2/3deg"
*MEAS_COND_AXIS_POSITION-12 "2.2088000000"
*MEAS_COND_AXIS_POSITION-13 "-0.4140600000"
*MEAS_COND_AXIS_POSITION-14 "0.0000000000"
*MEAS_COND_AXIS_POSITION-15 "10.0mm"
*MEAS_COND_AXIS_POSITION-16 "None"
*MEAS_COND_AXIS_POSITION-17 "Cu_K-beta"
*MEAS_COND_AXIS_POSITION-18 "13.000mm"
*MEAS_COND_AXIS_POSITION-19 "13.000mm"
*MEAS_COND_AXIS_POSITION-20 "No_unit"
*MEAS_COND_AXIS_POSITION-21 "Soller_slit_5.0deg"
*MEAS_COND_AXIS_POSITION-22 "None"
*MEAS_COND_AXIS_POSITION-23 "13.0000000000"
*MEAS_COND_AXIS_POSITION-24 "13.0000000000"
*MEAS_COND_AXIS_POSITION-25 "0.0109400000"
*MEAS_COND_AXIS_POSITION-26 "Open"
*MEAS_COND_AXIS_POSITION-27 "None"
*MEAS_COND_AXIS_POSITION-28 "None"
*MEAS_COND_AXIS_POSITION-29 "None"
*MEAS_COND_AXIS_POSITION-30 "38.0000000000"
*MEAS_COND_AXIS_UNIT-0 "deg"
*MEAS_COND_AXIS_UNIT-1 "deg"
*MEAS_COND_AXIS_UNIT-2 "deg"
*MEAS_COND_AXIS_UNIT-3 "mm"
*MEAS_COND_AXIS_UNIT-4 "deg"
*MEAS_COND_AXIS_UNIT-5 "deg"
*MEAS_COND_AXIS_UNIT-6 "deg"
*MEAS_COND_AXIS_UNIT-7 "mm"
*MEAS_COND_AXIS_UNIT-8 ""
*MEAS_COND_AXIS_UNIT-9 "pulse"
*MEAS_COND_AXIS_UNIT-10 ""
*MEAS_COND_AXIS_UNIT-11 ""
*MEAS_COND_AXIS_UNIT-12 "mm"
*MEAS_COND_AXIS_UNIT-13 "mm"
*MEAS_COND_AXIS_UNIT-14 ""
*MEAS_COND_AXIS_UNIT-15 ""
*MEAS_COND_AXIS_UNIT-16 ""
*MEAS_COND_AXIS_UNIT-17 ""
*MEAS_COND_AXIS_UNIT-18 ""
*MEAS_COND_AXIS_UNIT-19 ""
*MEAS_COND_AXIS_UNIT-20 ""
*MEAS_COND_AXIS_UNIT-21 ""
*MEAS_COND_AXIS_UNIT-22 ""
*MEAS_COND_AXIS_UNIT-23 "mm"
*MEAS_COND_AXIS_UNIT-24 "mm"
*MEAS_COND_AXIS_UNIT-25 "mm"
*MEAS_COND_AXIS_UNIT-26 ""
*MEAS_COND_AXIS_UNIT-27 ""
*MEAS_COND_AXIS_UNIT-28 ""
*MEAS_COND_AXIS_UNIT-29 ""
*MEAS_COND_AXIS_UNIT-30 "div"
*MEAS_COND_COUNTER_CNTLOSS_CORR "0.0000000000"
*MEAS_COND_COUNTER_PHABASE "38.0000000000"
*MEAS_COND_COUNTER_PHAWINDOW "16.0000000000"
*MEAS_COND_COUNTER_PHA_UNIT "div"
*MEAS_COND_COUNTER_TAUDIFF "30.0000000000"
*MEAS_COND_COUNTER_TAUINT "0.0000000000"
*MEAS_COND_IRRADIATION_MODE "OFF"
*MEAS_COND_IRRADIATION_WIDTH ""
*MEAS_COND_OPT_ATTR "集中法"
*MEAS_COND_OPT_NAME "@集中法"
*MEAS_COND_UNSYMMETRIC_MODE "OFF"
*MEAS_COND_XG_CURRENT "30.0000000000"
*MEAS_COND_XG_VOLTAGE "40.0000000000"
*MEAS_COND_XG_WAVE_TYPE "Ka"
*MEAS_DATA_COUNT "3501.0000000000"
*MEAS_SCAN_AXIS_X "2θ/θ"
*MEAS_SCAN_AXIS_X_INTERNAL "TwoThetaTheta"
*MEAS_SCAN_END_TIME "08/26/20 18:23:47"
*MEAS_SCAN_MODE "CONTINUOUS"
*MEAS_SCAN_MONITOR "0"
*MEAS_SCAN_RESOLUTION_X "0.0002"
*MEAS_SCAN_SPEED "1.0"
*MEAS_SCAN_SPEED_UNIT "deg/min"
*MEAS_SCAN_START "20.0000000000"
*MEAS_SCAN_START_TIME "08/26/20 17:10:52"
*MEAS_SCAN_STEP "0.0200000000"
*MEAS_SCAN_STOP "90.0000000000"
*MEAS_SCAN_UNIT_X "deg"
*MEAS_SCAN_UNIT_Y "counts"
*RAS_HEADER_END
*RAS_INT_START
20.0000 12286.0000 1.0000
20.0200 12272.0000 1.0000
20.0400 12409.0000 1.0000
20.0600 12357.0000 1.0000
20.0800 12205.0000 1.0000
20.1000 12326.0000 1.0000
20.1200 12427.0000 1.0000
20.1400 12381.0000 1.0000
20.1600 12440.0000 1.0000
20.1800 12578.0000 1.0000
20.2000 12477.0000 1.0000
20.2200 12427.0000 1.0000
20.2400 12390.0000 1.0000
20.2600 12473.0000 1.0000
20.2800 12402.0000 1.0000
20.3000 12457.0000 1.0000
20.3200 12298.0000 1.0000
20.3400 12112.0000 1.0000
20.3600 12163.0000 1.0000
20.3800 12244.0000 1.0000
20.4000 12283.0000 1.0000
20.4200 12475.0000 1.0000
20.4400 12310.0000 1.0000
20.4600 12098.0000 1.0000
20.4800 12427.0000 1.0000
20.5000 12206.0000 1.0000
20.5200 12329.0000 1.0000
20.5400 12392.0000 1.0000
20.5600 12414.0000 1.0000
20.5800 12360.0000 1.0000
20.6000 12374.0000 1.0000
20.6200 12421.0000 1.0000
20.6400 12465.0000 1.0000
20.6600 12277.0000 1.0000
20.6800 12295.0000 1.0000
20.7000 12361.0000 1.0000
20.7200 12516.0000 1.0000
20.7400 12587.0000 1.0000
20.7600 12655.0000 1.0000
20.7800 12587.0000 1.0000
20.8000 12781.0000 1.0000
20.8200 13331.0000 1.0000
20.8400 13462.0000 1.0000
20.8600 13439.0000 1.0000
20.8800 14322.0000 1.0000
20.9000 13779.0000 1.0000
20.9200 13065.0000 1.0000
20.9400 13073.0000 1.0000
20.9600 12825.0000 1.0000
20.9800 12545.0000 1.0000
21.0000 12438.0000 1.0000
21.0200 12433.0000 1.0000
21.0400 12432.0000 1.0000
21.0600 12415.0000 1.0000
21.0800 12373.0000 1.0000
21.1000 12356.0000 1.0000
21.1200 12158.0000 1.0000
21.1400 12379.0000 1.0000
21.1600 12241.0000 1.0000
21.1800 12356.0000 1.0000
21.2000 12275.0000 1.0000
21.2200 12195.0000 1.0000
21.2400 12193.0000 1.0000
21.2600 12233.0000 1.0000
21.2800 12335.0000 1.0000
21.3000 12396.0000 1.0000
21.3200 12133.0000 1.0000
21.3400 12185.0000 1.0000
21.3600 12316.0000 1.0000
21.3800 12246.0000 1.0000
21.4000 12172.0000 1.0000
21.4200 12190.0000 1.0000
21.4400 12142.0000 1.0000
21.4600 12271.0000 1.0000
21.4800 12182.0000 1.0000
21.5000 12244.0000 1.0000
21.5200 12215.0000 1.0000
21.5400 12194.0000 1.0000
21.5600 12298.0000 1.0000
21.5800 12411.0000 1.0000
21.6000 12345.0000 1.0000
21.6200 12341.0000 1.0000
21.6400 12217.0000 1.0000
21.6600 12284.0000 1.0000
21.6800 12373.0000 1.0000
21.7000 12123.0000 1.0000
21.7200 12034.0000 1.0000
21.7400 12376.0000 1.0000
21.7600 12329.0000 1.0000
21.7800 12178.0000 1.0000
21.8000 12102.0000 1.0000
21.8200 12085.0000 1.0000
21.8400 12025.0000 1.0000
21.8600 12185.0000 1.0000
21.8800 12123.0000 1.0000
21.9000 12095.0000 1.0000
21.9200 12260.0000 1.0000
21.9400 12249.0000 1.0000
21.9600 12211.0000 1.0000
21.9800 12234.0000 1.0000
22.0000 12036.0000 1.0000
22.0200 12165.0000 1.0000
22.0400 12366.0000 1.0000
22.0600 12106.0000 1.0000
22.0800 12188.0000 1.0000
22.1000 12138.0000 1.0000
22.1200 12162.0000 1.0000
22.1400 11862.0000 1.0000
22.1600 12261.0000 1.0000
22.1800 12174.0000 1.0000
22.2000 12330.0000 1.0000
22.2200 12265.0000 1.0000
22.2400 12250.0000 1.0000
22.2600 12064.0000 1.0000
22.2800 12280.0000 1.0000
22.3000 11991.0000 1.0000
22.3200 12047.0000 1.0000
22.3400 12243.0000 1.0000
22.3600 11927.0000 1.0000
22.3800 12038.0000 1.0000
22.4000 12239.0000 1.0000
22.4200 12332.0000 1.0000
22.4400 11975.0000 1.0000
22.4600 12008.0000 1.0000
22.4800 11975.0000 1.0000
22.5000 12029.0000 1.0000
22.5200 12078.0000 1.0000
22.5400 12116.0000 1.0000
22.5600 12109.0000 1.0000
22.5800 11944.0000 1.0000
22.6000 12200.0000 1.0000
22.6200 12089.0000 1.0000
22.6400 12061.0000 1.0000
22.6600 12119.0000 1.0000
22.6800 12136.0000 1.0000
22.7000 12077.0000 1.0000
22.7200 12246.0000 1.0000
22.7400 12063.0000 1.0000
22.7600 12197.0000 1.0000
22.7800 11979.0000 1.0000
22.8000 11944.0000 1.0000
22.8200 12172.0000 1.0000
22.8400 12121.0000 1.0000
22.8600 12089.0000 1.0000
22.8800 12222.0000 1.0000
22.9000 12041.0000 1.0000
22.9200 11885.0000 1.0000
22.9400 12112.0000 1.0000
22.9600 11865.0000 1.0000
22.9800 11902.0000 1.0000
23.0000 12095.0000 1.0000
23.0200 12071.0000 1.0000
23.0400 11869.0000 1.0000
23.0600 11802.0000 1.0000
23.0800 12132.0000 1.0000
23.1000 12062.0000 1.0000
23.1200 12131.0000 1.0000
23.1400 11982.0000 1.0000
23.1600 11933.0000 1.0000
23.1800 11967.0000 1.0000
23.2000 12136.0000 1.0000
23.2200 12138.0000 1.0000
23.2400 11999.0000 1.0000
23.2600 11940.0000 1.0000
23.2800 12043.0000 1.0000
23.3000 12112.0000 1.0000
23.3200 12107.0000 1.0000
23.3400 12232.0000 1.0000
23.3600 12132.0000 1.0000
23.3800 12088.0000 1.0000
23.4000 11940.0000 1.0000
23.4200 12184.0000 1.0000
23.4400 12070.0000 1.0000
23.4600 11915.0000 1.0000
23.4800 12317.0000 1.0000
23.5000 12023.0000 1.0000
23.5200 12109.0000 1.0000
23.5400 11855.0000 1.0000
23.5600 12107.0000 1.0000
23.5800 12136.0000 1.0000
23.6000 12032.0000 1.0000
23.6200 12033.0000 1.0000
23.6400 11999.0000 1.0000
23.6600 12032.0000 1.0000
23.6800 12170.0000 1.0000
23.7000 11982.0000 1.0000
23.7200 12055.0000 1.0000
23.7400 12088.0000 1.0000
23.7600 11945.0000 1.0000
23.7800 12073.0000 1.0000
23.8000 12077.0000 1.0000
23.8200 11952.0000 1.0000
23.8400 12114.0000 1.0000
23.8600 12470.0000 1.0000
23.8800 12189.0000 1.0000
23.9000 12253.0000 1.0000
23.9200 12364.0000 1.0000
23.9400 12440.0000 1.0000
23.9600 12644.0000 1.0000
23.9800 12663.0000 1.0000
24.0000 12691.0000 1.0000
24.0200 12985.0000 1.0000
24.0400 13257.0000 1.0000
24.0600 13627.0000 1.0000
24.0800 13959.0000 1.0000
24.1000 14445.0000 1.0000
24.1200 15131.0000 1.0000
24.1400 15590.0000 1.0000
24.1600 15922.0000 1.0000
24.1800 15533.0000 1.0000
24.2000 14743.0000 1.0000
24.2200 14222.0000 1.0000
24.2400 13714.0000 1.0000
24.2600 13027.0000 1.0000
24.2800 12792.0000 1.0000
24.3000 12432.0000 1.0000
24.3200 12359.0000 1.0000
24.3400 12193.0000 1.0000
24.3600 12123.0000 1.0000
24.3800 11930.0000 1.0000
24.4000 12044.0000 1.0000
24.4200 12007.0000 1.0000
24.4400 11926.0000 1.0000
24.4600 12002.0000 1.0000
24.4800 11876.0000 1.0000
24.5000 12073.0000 1.0000
24.5200 12060.0000 1.0000
24.5400 12119.0000 1.0000
24.5600 12143.0000 1.0000
24.5800 12153.0000 1.0000
24.6000 11980.0000 1.0000
24.6200 12000.0000 1.0000
24.6400 11873.0000 1.0000
24.6600 11673.0000 1.0000
24.6800 11855.0000 1.0000
24.7000 11966.0000 1.0000
24.7200 12027.0000 1.0000
24.7400 12024.0000 1.0000
24.7600 11696.0000 1.0000
24.7800 11771.0000 1.0000
24.8000 12302.0000 1.0000
24.8200 12198.0000 1.0000
24.8400 11813.0000 1.0000
24.8600 11855.0000 1.0000
24.8800 11852.0000 1.0000
24.9000 11775.0000 1.0000
24.9200 11846.0000 1.0000
24.9400 11817.0000 1.0000
24.9600 11890.0000 1.0000
24.9800 11822.0000 1.0000
25.0000 11928.0000 1.0000
25.0200 11887.0000 1.0000
25.0400 12034.0000 1.0000
25.0600 11986.0000 1.0000
25.0800 11821.0000 1.0000
25.1000 11980.0000 1.0000
25.1200 11958.0000 1.0000
25.1400 12009.0000 1.0000
25.1600 11986.0000 1.0000
25.1800 11996.0000 1.0000
25.2000 11900.0000 1.0000
25.2200 11927.0000 1.0000
25.2400 12037.0000 1.0000
25.2600 12108.0000 1.0000
25.2800 12032.0000 1.0000
25.3000 12116.0000 1.0000
25.3200 12243.0000 1.0000
25.3400 12138.0000 1.0000
25.3600 12221.0000 1.0000
25.3800 12289.0000 1.0000
25.4000 12505.0000 1.0000
25.4200 12732.0000 1.0000
25.4400 13005.0000 1.0000
25.4600 12945.0000 1.0000
25.4800 13506.0000 1.0000
25.5000 14021.0000 1.0000
25.5200 14548.0000 1.0000
25.5400 15137.0000 1.0000
25.5600 15638.0000 1.0000
25.5800 15659.0000 1.0000
25.6000 15338.0000 1.0000
25.6200 15083.0000 1.0000
25.6400 14296.0000 1.0000
25.6600 13647.0000 1.0000
25.6800 13420.0000 1.0000
25.7000 12664.0000 1.0000
25.7200 12610.0000 1.0000
25.7400 12442.0000 1.0000
25.7600 12276.0000 1.0000
25.7800 12052.0000 1.0000
25.8000 11951.0000 1.0000
25.8200 12115.0000 1.0000
25.8400 12047.0000 1.0000
25.8600 12161.0000 1.0000
25.8800 11837.0000 1.0000
25.9000 11862.0000 1.0000
25.9200 11611.0000 1.0000
25.9400 11854.0000 1.0000
25.9600 11842.0000 1.0000
25.9800 11934.0000 1.0000
26.0000 11920.0000 1.0000
26.0200 11977.0000 1.0000
26.0400 11733.0000 1.0000
26.0600 11902.0000 1.0000
26.0800 11986.0000 1.0000
26.1000 12017.0000 1.0000
26.1200 11811.0000 1.0000
26.1400 11941.0000 1.0000
26.1600 11992.0000 1.0000
26.1800 11869.0000 1.0000
26.2000 12110.0000 1.0000
26.2200 11889.0000 1.0000
26.2400 11828.0000 1.0000
26.2600 11749.0000 1.0000
26.2800 12050.0000 1.0000
26.3000 11919.0000 1.0000
26.3200 11896.0000 1.0000
26.3400 11961.0000 1.0000
26.3600 12124.0000 1.0000
26.3800 12004.0000 1.0000
26.4000 12159.0000 1.0000
26.4200 12085.0000 1.0000
26.4400 12403.0000 1.0000
26.4600 12149.0000 1.0000
26.4800 12180.0000 1.0000
26.5000 12396.0000 1.0000
26.5200 12837.0000 1.0000
26.5400 13878.0000 1.0000
26.5600 15460.0000 1.0000
26.5800 17001.0000 1.0000
26.6000 17046.0000 1.0000
26.6200 20773.0000 1.0000
26.6400 22150.0000 1.0000
26.6600 19004.0000 1.0000
26.6800 17064.0000 1.0000
26.7000 17057.0000 1.0000
26.7200 15552.0000 1.0000
26.7400 13692.0000 1.0000
26.7600 12730.0000 1.0000
26.7800 12413.0000 1.0000
26.8000 12288.0000 1.0000
26.8200 12168.0000 1.0000
26.8400 11937.0000 1.0000
26.8600 11972.0000 1.0000
26.8800 11787.0000 1.0000
26.9000 11971.0000 1.0000
26.9200 11818.0000 1.0000
26.9400 11715.0000 1.0000
26.9600 11802.0000 1.0000
26.9800 11849.0000 1.0000
27.0000 11680.0000 1.0000
27.0200 11698.0000 1.0000
27.0400 11803.0000 1.0000
27.0600 11658.0000 1.0000
27.0800 11489.0000 1.0000
27.1000 11764.0000 1.0000
27.1200 11960.0000 1.0000
27.1400 11616.0000 1.0000
27.1600 11702.0000 1.0000
27.1800 11721.0000 1.0000
27.2000 11780.0000 1.0000
27.2200 11778.0000 1.0000
27.2400 11550.0000 1.0000
27.2600 11823.0000 1.0000
27.2800 11680.0000 1.0000
27.3000 11650.0000 1.0000
27.3200 11505.0000 1.0000
27.3400 11648.0000 1.0000
27.3600 11724.0000 1.0000
27.3800 11721.0000 1.0000
27.4000 11578.0000 1.0000
27.4200 11581.0000 1.0000
27.4400 11636.0000 1.0000
27.4600 11692.0000 1.0000
27.4800 11739.0000 1.0000
27.5000 11626.0000 1.0000
27.5200 11683.0000 1.0000
27.5400 11669.0000 1.0000
27.5600 11618.0000 1.0000
27.5800 11848.0000 1.0000
27.6000 11720.0000 1.0000
27.6200 11517.0000 1.0000
27.6400 11348.0000 1.0000
27.6600 11726.0000 1.0000
27.6800 11555.0000 1.0000
27.7000 11620.0000 1.0000
27.7200 11643.0000 1.0000
27.7400 11547.0000 1.0000
27.7600 11670.0000 1.0000
27.7800 11830.0000 1.0000
27.8000 11639.0000 1.0000
27.8200 11550.0000 1.0000
27.8400 11763.0000 1.0000
27.8600 11718.0000 1.0000
27.8800 11753.0000 1.0000
27.9000 11724.0000 1.0000
27.9200 11704.0000 1.0000
27.9400 11756.0000 1.0000
27.9600 11683.0000 1.0000
27.9800 11636.0000 1.0000
28.0000 11625.0000 1.0000
28.0200 11660.0000 1.0000
28.0400 11618.0000 1.0000
28.0600 11522.0000 1.0000
28.0800 11590.0000 1.0000
28.1000 11634.0000 1.0000
28.1200 11544.0000 1.0000
28.1400 11783.0000 1.0000
28.1600 11659.0000 1.0000
28.1800 11690.0000 1.0000
28.2000 11614.0000 1.0000
28.2200 11499.0000 1.0000
28.2400 11725.0000 1.0000
28.2600 11706.0000 1.0000
28.2800 11630.0000 1.0000
28.3000 11496.0000 1.0000
28.3200 11570.0000 1.0000
28.3400 11609.0000 1.0000
28.3600 11731.0000 1.0000
28.3800 11599.0000 1.0000
28.4000 11580.0000 1.0000
28.4200 11614.0000 1.0000
28.4400 11766.0000 1.0000
28.4600 11500.0000 1.0000
28.4800 11552.0000 1.0000
28.5000 11699.0000 1.0000
28.5200 11636.0000 1.0000
28.5400 11732.0000 1.0000
28.5600 11618.0000 1.0000
28.5800 11491.0000 1.0000
28.6000 11664.0000 1.0000
28.6200 11605.0000 1.0000
28.6400 11589.0000 1.0000
28.6600 11677.0000 1.0000
28.6800 11742.0000 1.0000
28.7000 11452.0000 1.0000
28.7200 11359.0000 1.0000
28.7400 11571.0000 1.0000
28.7600 11633.0000 1.0000
28.7800 11439.0000 1.0000
28.8000 11662.0000 1.0000
28.8200 11549.0000 1.0000
28.8400 11472.0000 1.0000
28.8600 11661.0000 1.0000
28.8800 11630.0000 1.0000
28.9000 11649.0000 1.0000
28.9200 11555.0000 1.0000
28.9400 11616.0000 1.0000
28.9600 11898.0000 1.0000
28.9800 11450.0000 1.0000
29.0000 11555.0000 1.0000
29.0200 11758.0000 1.0000
29.0400 11626.0000 1.0000
29.0600 11453.0000 1.0000
29.0800 11531.0000 1.0000
29.1000 11504.0000 1.0000
29.1200 11530.0000 1.0000
29.1400 11703.0000 1.0000
29.1600 11781.0000 1.0000
29.1800 11367.0000 1.0000
29.2000 11524.0000 1.0000
29.2200 11568.0000 1.0000
29.2400 11633.0000 1.0000
29.2600 11469.0000 1.0000
29.2800 11520.0000 1.0000
29.3000 11540.0000 1.0000
29.3200 11638.0000 1.0000
29.3400 11734.0000 1.0000
29.3600 11518.0000 1.0000
29.3800 11668.0000 1.0000
29.4000 11789.0000 1.0000
29.4200 11452.0000 1.0000
29.4400 11525.0000 1.0000
29.4600 11674.0000 1.0000
29.4800 11622.0000 1.0000
29.5000 11620.0000 1.0000
29.5200 11467.0000 1.0000
29.5400 11606.0000 1.0000
29.5600 11625.0000 1.0000
29.5800 11690.0000 1.0000
29.6000 11875.0000 1.0000
29.6200 11609.0000 1.0000
29.6400 11668.0000 1.0000
29.6600 11738.0000 1.0000
29.6800 11604.0000 1.0000
29.7000 11647.0000 1.0000
29.7200 11640.0000 1.0000
29.7400 11694.0000 1.0000
29.7600 11792.0000 1.0000
29.7800 11510.0000 1.0000
29.8000 11621.0000 1.0000
29.8200 11693.0000 1.0000
29.8400 11685.0000 1.0000
29.8600 11923.0000 1.0000
29.8800 11920.0000 1.0000
29.9000 11966.0000 1.0000
29.9200 11975.0000 1.0000
29.9400 12048.0000 1.0000
29.9600 12178.0000 1.0000
29.9800 12320.0000 1.0000
30.0000 12325.0000 1.0000
30.0200 12421.0000 1.0000
30.0400 12788.0000 1.0000
30.0600 13360.0000 1.0000
30.0800 13829.0000 1.0000
30.1000 14266.0000 1.0000
30.1200 14655.0000 1.0000
30.1400 14748.0000 1.0000
30.1600 14660.0000 1.0000
30.1800 13963.0000 1.0000
30.2000 13842.0000 1.0000
30.2200 13526.0000 1.0000
30.2400 12944.0000 1.0000
30.2600 12709.0000 1.0000
30.2800 12464.0000 1.0000
30.3000 12362.0000 1.0000
30.3200 12116.0000 1.0000
30.3400 11907.0000 1.0000
30.3600 11933.0000 1.0000
30.3800 11656.0000 1.0000
30.4000 11724.0000 1.0000
30.4200 11870.0000 1.0000
30.4400 11760.0000 1.0000
30.4600 11676.0000 1.0000
30.4800 11578.0000 1.0000
30.5000 11621.0000 1.0000
30.5200 11681.0000 1.0000
30.5400 11595.0000 1.0000
30.5600 11445.0000 1.0000
30.5800 11596.0000 1.0000
30.6000 11714.0000 1.0000
30.6200 11364.0000 1.0000
30.6400 11520.0000 1.0000
30.6600 11676.0000 1.0000
30.6800 11728.0000 1.0000
30.7000 11636.0000 1.0000
30.7200 11457.0000 1.0000
30.7400 11452.0000 1.0000
30.7600 11780.0000 1.0000
30.7800 11716.0000 1.0000
30.8000 11485.0000 1.0000
30.8200 11465.0000 1.0000
30.8400 11741.0000 1.0000
30.8600 11593.0000 1.0000
30.8800 11540.0000 1.0000
30.9000 11522.0000 1.0000
30.9200 11301.0000 1.0000
30.9400 11677.0000 1.0000
30.9600 11587.0000 1.0000
30.9800 11638.0000 1.0000
31.0000 11389.0000 1.0000
31.0200 11738.0000 1.0000
31.0400 11757.0000 1.0000
31.0600 11682.0000 1.0000
31.0800 11361.0000 1.0000
31.1000 11663.0000 1.0000
31.1200 11515.0000 1.0000
31.1400 11608.0000 1.0000
31.1600 11459.0000 1.0000
31.1800 11372.0000 1.0000
31.2000 11305.0000 1.0000
31.2200 11507.0000 1.0000
31.2400 11503.0000 1.0000
31.2600 11425.0000 1.0000
31.2800 11340.0000 1.0000
31.3000 11568.0000 1.0000
31.3200 11512.0000 1.0000
31.3400 11433.0000 1.0000
31.3600 11428.0000 1.0000
31.3800 11446.0000 1.0000
31.4000 11488.0000 1.0000
31.4200 11533.0000 1.0000
31.4400 11570.0000 1.0000
31.4600 11447.0000 1.0000
31.4800 11529.0000 1.0000
31.5000 11514.0000 1.0000
31.5200 11546.0000 1.0000
31.5400 11441.0000 1.0000
31.5600 11709.0000 1.0000
31.5800 11433.0000 1.0000
31.6000 11599.0000 1.0000
31.6200 11390.0000 1.0000
31.6400 11586.0000 1.0000
31.6600 11528.0000 1.0000
31.6800 11627.0000 1.0000
31.7000 11591.0000 1.0000
31.7200 11602.0000 1.0000
31.7400 11401.0000 1.0000
31.7600 11382.0000 1.0000
31.7800 11578.0000 1.0000
31.8000 11585.0000 1.0000
31.8200 11604.0000 1.0000
31.8400 11603.0000 1.0000
31.8600 11604.0000 1.0000
31.8800 11541.0000 1.0000
31.9000 11613.0000 1.0000
31.9200 11564.0000 1.0000
31.9400 11706.0000 1.0000
31.9600 11623.0000 1.0000
31.9800 11698.0000 1.0000
32.0000 11604.0000 1.0000
32.0200 11573.0000 1.0000
32.0400 11536.0000 1.0000
32.0600 11629.0000 1.0000
32.0800 11785.0000 1.0000
32.1000 11748.0000 1.0000
32.1200 11647.0000 1.0000
32.1400 11687.0000 1.0000
32.1600 11655.0000 1.0000
32.1800 11640.0000 1.0000
32.2000 11600.0000 1.0000
32.2200 11433.0000 1.0000
32.2400 11531.0000 1.0000
32.2600 11504.0000 1.0000
32.2800 11585.0000 1.0000
32.3000 11440.0000 1.0000
32.3200 11635.0000 1.0000
32.3400 11422.0000 1.0000
32.3600 11357.0000 1.0000
32.3800 11540.0000 1.0000
32.4000 11527.0000 1.0000
32.4200 11698.0000 1.0000
32.4400 11739.0000 1.0000
32.4600 11642.0000 1.0000
32.4800 11504.0000 1.0000
32.5000 11575.0000 1.0000
32.5200 11404.0000 1.0000
32.5400 11637.0000 1.0000
32.5600 11694.0000 1.0000
32.5800 11704.0000 1.0000
32.6000 11655.0000 1.0000
32.6200 11521.0000 1.0000
32.6400 11633.0000 1.0000
32.6600 11700.0000 1.0000
32.6800 11836.0000 1.0000
32.7000 11587.0000 1.0000
32.7200 11650.0000 1.0000
32.7400 11662.0000 1.0000
32.7600 11713.0000 1.0000
32.7800 11813.0000 1.0000
32.8000 11872.0000 1.0000
32.8200 12008.0000 1.0000
32.8400 11812.0000 1.0000
32.8600 11933.0000 1.0000
32.8800 11998.0000 1.0000
32.9000 12372.0000 1.0000
32.9200 12261.0000 1.0000
32.9400 12287.0000 1.0000
32.9600 12855.0000 1.0000
32.9800 12981.0000 1.0000
33.0000 13434.0000 1.0000
33.0200 14059.0000 1.0000
33.0400 14651.0000 1.0000
33.0600 15785.0000 1.0000
33.0800 16894.0000 1.0000
33.1000 18650.0000 1.0000
33.1200 21047.0000 1.0000
33.1400 23394.0000 1.0000
33.1600 24771.0000 1.0000
33.1800 24174.0000 1.0000
33.2000 22624.0000 1.0000
33.2200 21062.0000 1.0000
33.2400 20013.0000 1.0000
33.2600 18817.0000 1.0000
33.2800 17023.0000 1.0000
33.3000 15255.0000 1.0000
33.3200 14026.0000 1.0000
33.3400 13421.0000 1.0000
33.3600 12892.0000 1.0000
33.3800 12554.0000 1.0000
33.4000 12160.0000 1.0000
33.4200 12174.0000 1.0000
33.4400 12185.0000 1.0000
33.4600 11827.0000 1.0000
33.4800 11640.0000 1.0000
33.5000 11655.0000 1.0000
33.5200 11680.0000 1.0000
33.5400 11829.0000 1.0000
33.5600 11602.0000 1.0000
33.5800 11640.0000 1.0000
33.6000 11558.0000 1.0000
33.6200 11565.0000 1.0000
33.6400 11666.0000 1.0000
33.6600 11512.0000 1.0000
33.6800 11564.0000 1.0000
33.7000 11554.0000 1.0000
33.7200 11612.0000 1.0000
33.7400 11659.0000 1.0000
33.7600 11530.0000 1.0000
33.7800 11580.0000 1.0000
33.8000 11672.0000 1.0000
33.8200 11632.0000 1.0000
33.8400 11536.0000 1.0000
33.8600 11737.0000 1.0000
33.8800 11565.0000 1.0000
33.9000 11653.0000 1.0000
33.9200 11543.0000 1.0000
33.9400 11624.0000 1.0000
33.9600 11521.0000 1.0000
33.9800 11577.0000 1.0000
34.0000 11552.0000 1.0000
34.0200 11690.0000 1.0000
34.0400 11590.0000 1.0000
34.0600 11600.0000 1.0000
34.0800 11580.0000 1.0000
34.1000 11340.0000 1.0000
34.1200 11596.0000 1.0000
34.1400 11668.0000 1.0000
34.1600 11694.0000 1.0000
34.1800 11539.0000 1.0000
34.2000 11409.0000 1.0000
34.2200 11403.0000 1.0000
34.2400 11654.0000 1.0000
34.2600 11594.0000 1.0000
34.2800 11582.0000 1.0000
34.3000 11571.0000 1.0000
34.3200 11443.0000 1.0000
34.3400 11684.0000 1.0000
34.3600 11447.0000 1.0000
34.3800 11674.0000 1.0000
34.4000 11427.0000 1.0000
34.4200 11676.0000 1.0000
34.4400 11538.0000 1.0000
34.4600 11659.0000 1.0000
34.4800 11944.0000 1.0000
34.5000 11585.0000 1.0000
34.5200 11818.0000 1.0000
34.5400 11554.0000 1.0000
34.5600 11612.0000 1.0000
34.5800 11715.0000 1.0000
34.6000 11605.0000 1.0000
34.6200 11855.0000 1.0000
34.6400 11597.0000 1.0000
34.6600 11826.0000 1.0000
34.6800 11573.0000 1.0000
34.7000 11667.0000 1.0000
34.7200 11618.0000 1.0000
34.7400 11765.0000 1.0000
34.7600 11922.0000 1.0000
34.7800 11671.0000 1.0000
34.8000 11812.0000 1.0000
34.8200 11824.0000 1.0000
34.8400 11906.0000 1.0000
34.8600 12026.0000 1.0000
34.8800 12167.0000 1.0000
34.9000 11994.0000 1.0000
34.9200 12283.0000 1.0000
34.9400 12628.0000 1.0000
34.9600 12567.0000 1.0000
34.9800 12757.0000 1.0000
35.0000 12731.0000 1.0000
35.0200 13068.0000 1.0000
35.0400 13570.0000 1.0000
35.0600 14099.0000 1.0000
35.0800 15009.0000 1.0000
35.1000 15866.0000 1.0000
35.1200 16866.0000 1.0000
35.1400 18026.0000 1.0000
35.1600 18243.0000 1.0000
35.1800 17490.0000 1.0000
35.2000 16835.0000 1.0000
35.2200 16215.0000 1.0000
35.2400 15843.0000 1.0000
35.2600 15784.0000 1.0000
35.2800 14957.0000 1.0000
35.3000 14542.0000 1.0000
35.3200 14313.0000 1.0000
35.3400 14554.0000 1.0000
35.3600 15081.0000 1.0000
35.3800 15532.0000 1.0000
35.4000 16474.0000 1.0000
35.4200 18292.0000 1.0000
35.4400 20308.0000 1.0000
35.4600 21876.0000 1.0000
35.4800 23419.0000 1.0000
35.5000 23737.0000 1.0000
35.5200 23425.0000 1.0000
35.5400 23066.0000 1.0000
35.5600 23819.0000 1.0000
35.5800 24243.0000 1.0000
35.6000 24855.0000 1.0000
35.6200 25153.0000 1.0000
35.6400 24667.0000 1.0000
35.6600 22737.0000 1.0000
35.6800 20959.0000 1.0000
35.7000 19428.0000 1.0000
35.7200 18838.0000 1.0000
35.7400 17652.0000 1.0000
35.7600 16317.0000 1.0000
35.7800 14910.0000 1.0000
35.8000 13756.0000 1.0000
35.8200 13104.0000 1.0000
35.8400 12788.0000 1.0000
35.8600 12555.0000 1.0000
35.8800 12398.0000 1.0000
35.9000 11983.0000 1.0000
35.9200 11953.0000 1.0000
35.9400 12123.0000 1.0000
35.9600 11713.0000 1.0000
35.9800 11904.0000 1.0000
36.0000 11818.0000 1.0000
36.0200 11658.0000 1.0000
36.0400 11622.0000 1.0000
36.0600 11842.0000 1.0000
36.0800 11600.0000 1.0000
36.1000 11622.0000 1.0000
36.1200 11597.0000 1.0000
36.1400 11290.0000 1.0000
36.1600 11574.0000 1.0000
36.1800 11568.0000 1.0000
36.2000 11658.0000 1.0000
36.2200 11611.0000 1.0000
36.2400 11527.0000 1.0000
36.2600 11437.0000 1.0000
36.2800 11478.0000 1.0000
36.3000 11647.0000 1.0000
36.3200 11553.0000 1.0000
36.3400 11613.0000 1.0000
36.3600 11607.0000 1.0000
36.3800 11481.0000 1.0000
36.4000 11552.0000 1.0000
36.4200 11658.0000 1.0000
36.4400 11577.0000 1.0000
36.4600 11521.0000 1.0000
36.4800 11469.0000 1.0000
36.5000 11542.0000 1.0000
36.5200 11652.0000 1.0000
36.5400 11919.0000 1.0000
36.5600 11792.0000 1.0000
36.5800 11783.0000 1.0000
36.6000 11713.0000 1.0000
36.6200 11784.0000 1.0000
36.6400 11566.0000 1.0000
36.6600 11606.0000 1.0000
36.6800 11730.0000 1.0000
36.7000 11611.0000 1.0000
36.7200 11479.0000 1.0000
36.7400 11532.0000 1.0000
36.7600 11441.0000 1.0000
36.7800 11455.0000 1.0000
36.8000 11624.0000 1.0000
36.8200 11683.0000 1.0000
36.8400 11584.0000 1.0000
36.8600 11394.0000 1.0000
36.8800 11418.0000 1.0000
36.9000 11490.0000 1.0000
36.9200 11437.0000 1.0000
36.9400 11599.0000 1.0000
36.9600 11592.0000 1.0000
36.9800 11693.0000 1.0000
37.0000 11750.0000 1.0000
37.0200 11467.0000 1.0000
37.0400 11867.0000 1.0000
37.0600 11758.0000 1.0000
37.0800 11879.0000 1.0000
37.1000 11823.0000 1.0000
37.1200 12011.0000 1.0000
37.1400 11836.0000 1.0000
37.1600 12126.0000 1.0000
37.1800 11789.0000 1.0000
37.2000 11828.0000 1.0000
37.2200 11737.0000 1.0000
37.2400 11673.0000 1.0000
37.2600 11652.0000 1.0000
37.2800 11682.0000 1.0000
37.3000 11458.0000 1.0000
37.3200 11643.0000 1.0000
37.3400 11491.0000 1.0000
37.3600 11692.0000 1.0000
37.3800 11415.0000 1.0000
37.4000 11428.0000 1.0000
37.4200 11592.0000 1.0000
37.4400 11435.0000 1.0000
37.4600 11677.0000 1.0000
37.4800 11545.0000 1.0000
37.5000 11581.0000 1.0000
37.5200 11651.0000 1.0000
37.5400 11567.0000 1.0000
37.5600 11611.0000 1.0000
37.5800 11681.0000 1.0000
37.6000 11759.0000 1.0000
37.6200 11979.0000 1.0000
37.6400 11965.0000 1.0000
37.6600 12139.0000 1.0000
37.6800 12170.0000 1.0000
37.7000 12582.0000 1.0000
37.7200 13151.0000 1.0000
37.7400 13510.0000 1.0000
37.7600 14097.0000 1.0000
37.7800 14399.0000 1.0000
37.8000 13711.0000 1.0000
37.8200 13336.0000 1.0000
37.8400 13392.0000 1.0000
37.8600 13220.0000 1.0000
37.8800 12938.0000 1.0000
37.9000 12548.0000 1.0000
37.9200 12354.0000 1.0000
37.9400 11970.0000 1.0000
37.9600 11821.0000 1.0000
37.9800 11768.0000 1.0000
38.0000 11643.0000 1.0000
38.0200 11411.0000 1.0000
38.0400 11659.0000 1.0000
38.0600 11638.0000 1.0000
38.0800 11619.0000 1.0000
38.1000 11569.0000 1.0000
38.1200 11479.0000 1.0000
38.1400 11309.0000 1.0000
38.1600 11497.0000 1.0000
38.1800 11439.0000 1.0000
38.2000 11287.0000 1.0000
38.2200 11308.0000 1.0000
38.2400 11470.0000 1.0000
38.2600 11380.0000 1.0000
38.2800 11558.0000 1.0000
38.3000 11522.0000 1.0000
38.3200 11310.0000 1.0000
38.3400 11336.0000 1.0000
38.3600 11287.0000 1.0000
38.3800 11467.0000 1.0000
38.4000 11470.0000 1.0000
38.4200 11512.0000 1.0000
38.4400 11372.0000 1.0000
38.4600 11245.0000 1.0000
38.4800 11415.0000 1.0000
38.5000 11546.0000 1.0000
38.5200 11392.0000 1.0000
38.5400 11179.0000 1.0000
38.5600 11373.0000 1.0000
38.5800 11303.0000 1.0000
38.6000 11463.0000 1.0000
38.6200 11420.0000 1.0000
38.6400 11384.0000 1.0000
38.6600 11284.0000 1.0000
38.6800 11303.0000 1.0000
38.7000 11175.0000 1.0000
38.7200 11236.0000 1.0000
38.7400 11508.0000 1.0000
38.7600 11359.0000 1.0000
38.7800 11334.0000 1.0000
38.8000 11355.0000 1.0000
38.8200 11413.0000 1.0000
38.8400 11399.0000 1.0000
38.8600 11307.0000 1.0000
38.8800 11367.0000 1.0000
38.9000 11384.0000 1.0000
38.9200 11331.0000 1.0000
38.9400 11318.0000 1.0000
38.9600 11489.0000 1.0000
38.9800 11336.0000 1.0000
39.0000 11287.0000 1.0000
39.0200 11198.0000 1.0000
39.0400 11491.0000 1.0000
39.0600 11392.0000 1.0000
39.0800 11390.0000 1.0000
39.1000 11454.0000 1.0000
39.1200 11469.0000 1.0000
39.1400 11212.0000 1.0000
39.1600 11437.0000 1.0000
39.1800 11511.0000 1.0000
39.2000 11499.0000 1.0000
39.2200 11493.0000 1.0000
39.2400 11565.0000 1.0000
39.2600 11607.0000 1.0000
39.2800 11563.0000 1.0000
39.3000 11695.0000 1.0000
39.3200 11492.0000 1.0000
39.3400 11507.0000 1.0000
39.3600 11585.0000 1.0000
39.3800 11564.0000 1.0000
39.4000 11698.0000 1.0000
39.4200 11730.0000 1.0000
39.4400 11686.0000 1.0000
39.4600 11718.0000 1.0000
39.4800 11638.0000 1.0000
39.5000 11670.0000 1.0000
39.5200 11401.0000 1.0000
39.5400 11507.0000 1.0000
39.5600 11556.0000 1.0000
39.5800 11597.0000 1.0000
39.6000 11427.0000 1.0000
39.6200 11308.0000 1.0000
39.6400 11408.0000 1.0000
39.6600 11238.0000 1.0000
39.6800 11537.0000 1.0000
39.7000 11353.0000 1.0000
39.7200 11469.0000 1.0000
39.7400 11298.0000 1.0000
39.7600 11280.0000 1.0000
39.7800 11456.0000 1.0000
39.8000 11460.0000 1.0000
39.8200 11359.0000 1.0000
39.8400 11394.0000 1.0000
39.8600 11378.0000 1.0000
39.8800 11245.0000 1.0000
39.9000 11396.0000 1.0000
39.9200 11411.0000 1.0000
39.9400 11313.0000 1.0000
39.9600 11342.0000 1.0000
39.9800 11393.0000 1.0000
40.0000 11455.0000 1.0000
40.0200 11266.0000 1.0000
40.0400 11316.0000 1.0000
40.0600 11369.0000 1.0000
40.0800 11521.0000 1.0000
40.1000 11542.0000 1.0000
40.1200 11344.0000 1.0000
40.1400 11364.0000 1.0000
40.1600 11242.0000 1.0000
40.1800 11317.0000 1.0000
40.2000 11367.0000 1.0000
40.2200 11370.0000 1.0000
40.2400 11509.0000 1.0000
40.2600 11623.0000 1.0000
40.2800 11764.0000 1.0000
40.3000 11778.0000 1.0000
40.3200 11682.0000 1.0000
40.3400 11458.0000 1.0000
40.3600 11363.0000 1.0000
40.3800 11788.0000 1.0000
40.4000 11652.0000 1.0000
40.4200 11529.0000 1.0000
40.4400 11446.0000 1.0000
40.4600 11282.0000 1.0000
40.4800 11451.0000 1.0000
40.5000 11326.0000 1.0000
40.5200 11498.0000 1.0000
40.5400 11351.0000 1.0000
40.5600 11612.0000 1.0000
40.5800 11527.0000 1.0000
40.6000 11668.0000 1.0000
40.6200 11597.0000 1.0000
40.6400 11469.0000 1.0000
40.6600 11583.0000 1.0000
40.6800 11487.0000 1.0000
40.7000 11820.0000 1.0000
40.7200 11988.0000 1.0000
40.7400 12107.0000 1.0000
40.7600 12123.0000 1.0000
40.7800 12449.0000 1.0000
40.8000 12648.0000 1.0000
40.8200 13385.0000 1.0000
40.8400 13956.0000 1.0000
40.8600 14271.0000 1.0000
40.8800 13985.0000 1.0000
40.9000 13753.0000 1.0000
40.9200 13196.0000 1.0000
40.9400 13085.0000 1.0000
40.9600 13057.0000 1.0000
40.9800 13173.0000 1.0000
41.0000 12574.0000 1.0000
41.0200 12275.0000 1.0000
41.0400 11871.0000 1.0000
41.0600 11761.0000 1.0000
41.0800 11607.0000 1.0000
41.1000 11590.0000 1.0000
41.1200 11520.0000 1.0000
41.1400 11369.0000 1.0000
41.1600 11512.0000 1.0000
41.1800 11377.0000 1.0000
41.2000 11474.0000 1.0000
41.2200 11393.0000 1.0000
41.2400 11525.0000 1.0000
41.2600 11412.0000 1.0000
41.2800 11249.0000 1.0000
41.3000 11497.0000 1.0000
41.3200 11313.0000 1.0000
41.3400 11324.0000 1.0000
41.3600 11482.0000 1.0000
41.3800 11391.0000 1.0000
41.4000 11333.0000 1.0000
41.4200 11327.0000 1.0000
41.4400 11006.0000 1.0000
41.4600 11227.0000 1.0000
41.4800 11322.0000 1.0000
41.5000 11484.0000 1.0000
41.5200 11419.0000 1.0000
41.5400 11183.0000 1.0000
41.5600 11267.0000 1.0000
41.5800 11234.0000 1.0000
41.6000 11579.0000 1.0000
41.6200 11336.0000 1.0000
41.6400 11484.0000 1.0000
41.6600 11304.0000 1.0000
41.6800 11285.0000 1.0000
41.7000 11404.0000 1.0000
41.7200 11240.0000 1.0000
41.7400 11311.0000 1.0000
41.7600 11384.0000 1.0000
41.7800 11520.0000 1.0000
41.8000 11420.0000 1.0000
41.8200 11468.0000 1.0000
41.8400 11415.0000 1.0000
41.8600 11345.0000 1.0000
41.8800 11244.0000 1.0000
41.9000 11520.0000 1.0000
41.9200 11444.0000 1.0000
41.9400 11495.0000 1.0000
41.9600 11381.0000 1.0000
41.9800 11442.0000 1.0000
42.0000 11446.0000 1.0000
42.0200 11508.0000 1.0000
42.0400 11465.0000 1.0000
42.0600 11304.0000 1.0000
42.0800 11214.0000 1.0000
42.1000 11327.0000 1.0000
42.1200 11253.0000 1.0000
42.1400 11200.0000 1.0000
42.1600 11321.0000 1.0000
42.1800 11419.0000 1.0000
42.2000 11335.0000 1.0000
42.2200 11217.0000 1.0000
42.2400 11525.0000 1.0000
42.2600 11397.0000 1.0000
42.2800 11295.0000 1.0000
42.3000 11398.0000 1.0000
42.3200 11364.0000 1.0000
42.3400 11363.0000 1.0000
42.3600 11592.0000 1.0000
42.3800 11757.0000 1.0000
42.4000 11600.0000 1.0000
42.4200 11691.0000 1.0000
42.4400 11839.0000 1.0000
42.4600 12238.0000 1.0000
42.4800 11748.0000 1.0000
42.5000 11559.0000 1.0000
42.5200 11424.0000 1.0000
42.5400 11634.0000 1.0000
42.5600 11826.0000 1.0000
42.5800 11790.0000 1.0000
42.6000 11459.0000 1.0000
42.6200 11402.0000 1.0000
42.6400 11246.0000 1.0000
42.6600 11285.0000 1.0000
42.6800 11302.0000 1.0000
42.7000 11359.0000 1.0000
42.7200 11348.0000 1.0000
42.7400 11451.0000 1.0000
42.7600 11338.0000 1.0000
42.7800 11361.0000 1.0000
42.8000 11510.0000 1.0000
42.8200 11541.0000 1.0000
42.8400 11676.0000 1.0000
42.8600 11684.0000 1.0000
42.8800 11523.0000 1.0000
42.9000 11615.0000 1.0000
42.9200 11817.0000 1.0000
42.9400 11677.0000 1.0000
42.9600 11673.0000 1.0000
42.9800 11806.0000 1.0000
43.0000 12246.0000 1.0000
43.0200 12409.0000 1.0000
43.0400 12557.0000 1.0000
43.0600 12940.0000 1.0000
43.0800 13396.0000 1.0000
43.1000 13815.0000 1.0000
43.1200 14156.0000 1.0000
43.1400 14288.0000 1.0000
43.1600 14242.0000 1.0000
43.1800 14169.0000 1.0000
43.2000 14329.0000 1.0000
43.2200 14763.0000 1.0000
43.2400 14941.0000 1.0000
43.2600 15108.0000 1.0000
43.2800 15812.0000 1.0000
43.3000 16759.0000 1.0000
43.3200 17800.0000 1.0000
43.3400 18586.0000 1.0000
43.3600 18686.0000 1.0000
43.3800 17811.0000 1.0000
43.4000 16715.0000 1.0000
43.4200 16016.0000 1.0000
43.4400 15863.0000 1.0000
43.4600 15903.0000 1.0000
43.4800 15430.0000 1.0000
43.5000 14560.0000 1.0000
43.5200 13560.0000 1.0000
43.5400 13080.0000 1.0000
43.5600 12544.0000 1.0000
43.5800 12403.0000 1.0000
43.6000 12349.0000 1.0000
43.6200 12134.0000 1.0000
43.6400 12021.0000 1.0000
43.6600 11928.0000 1.0000
43.6800 11822.0000 1.0000
43.7000 11504.0000 1.0000
43.7200 11481.0000 1.0000
43.7400 11586.0000 1.0000
43.7600 11342.0000 1.0000
43.7800 11490.0000 1.0000
43.8000 11259.0000 1.0000
43.8200 11472.0000 1.0000
43.8400 11403.0000 1.0000
43.8600 11451.0000 1.0000
43.8800 11457.0000 1.0000
43.9000 11388.0000 1.0000
43.9200 11380.0000 1.0000
43.9400 11407.0000 1.0000
43.9600 11502.0000 1.0000
43.9800 11346.0000 1.0000
44.0000 11420.0000 1.0000
44.0200 11421.0000 1.0000
44.0400 11211.0000 1.0000
44.0600 11276.0000 1.0000
44.0800 11166.0000 1.0000
44.1000 11229.0000 1.0000
44.1200 11291.0000 1.0000
44.1400 11142.0000 1.0000
44.1600 11347.0000 1.0000
44.1800 11334.0000 1.0000
44.2000 11277.0000 1.0000
44.2200 11422.0000 1.0000
44.2400 11336.0000 1.0000
44.2600 11303.0000 1.0000
44.2800 11459.0000 1.0000
44.3000 11289.0000 1.0000
44.3200 11352.0000 1.0000
44.3400 11247.0000 1.0000
44.3600 11110.0000 1.0000
44.3800 11192.0000 1.0000
44.4000 11330.0000 1.0000
44.4200 11482.0000 1.0000
44.4400 11313.0000 1.0000
44.4600 11317.0000 1.0000
44.4800 11327.0000 1.0000
44.5000 11320.0000 1.0000
44.5200 11210.0000 1.0000
44.5400 11423.0000 1.0000
44.5600 11336.0000 1.0000
44.5800 11338.0000 1.0000
44.6000 11398.0000 1.0000
44.6200 11276.0000 1.0000
44.6400 11070.0000 1.0000
44.6600 11180.0000 1.0000
44.6800 11204.0000 1.0000
44.7000 11249.0000 1.0000
44.7200 11232.0000 1.0000
44.7400 11399.0000 1.0000
44.7600 11123.0000 1.0000
44.7800 11253.0000 1.0000
44.8000 11343.0000 1.0000
44.8200 11134.0000 1.0000
44.8400 11022.0000 1.0000
44.8600 11390.0000 1.0000
44.8800 11144.0000 1.0000
44.9000 11179.0000 1.0000
44.9200 11274.0000 1.0000
44.9400 11304.0000 1.0000
44.9600 11183.0000 1.0000
44.9800 11333.0000 1.0000
45.0000 11085.0000 1.0000
45.0200 11221.0000 1.0000
45.0400 11218.0000 1.0000
45.0600 11180.0000 1.0000
45.0800 11165.0000 1.0000
45.1000 11164.0000 1.0000
45.1200 11519.0000 1.0000
45.1400 11452.0000 1.0000
45.1600 11204.0000 1.0000
45.1800 11477.0000 1.0000
45.2000 11087.0000 1.0000
45.2200 11293.0000 1.0000
45.2400 11350.0000 1.0000
45.2600 11200.0000 1.0000
45.2800 11323.0000 1.0000
45.3000 11097.0000 1.0000
45.3200 11137.0000 1.0000
45.3400 11182.0000 1.0000
45.3600 11127.0000 1.0000
45.3800 11119.0000 1.0000
45.4000 11139.0000 1.0000
45.4200 11280.0000 1.0000
45.4400 11385.0000 1.0000
45.4600 11190.0000 1.0000
45.4800 11217.0000 1.0000
45.5000 11374.0000 1.0000
45.5200 11213.0000 1.0000
45.5400 11316.0000 1.0000
45.5600 11212.0000 1.0000
45.5800 11356.0000 1.0000
45.6000 11250.0000 1.0000
45.6200 11432.0000 1.0000
45.6400 11330.0000 1.0000
45.6600 11150.0000 1.0000
45.6800 11337.0000 1.0000
45.7000 11467.0000 1.0000
45.7200 11461.0000 1.0000
45.7400 11376.0000 1.0000
45.7600 11407.0000 1.0000
45.7800 11726.0000 1.0000
45.8000 11663.0000 1.0000
45.8200 11675.0000 1.0000
45.8400 11430.0000 1.0000
45.8600 11443.0000 1.0000
45.8800 11593.0000 1.0000
45.9000 11637.0000 1.0000
45.9200 11344.0000 1.0000
45.9400 11278.0000 1.0000
45.9600 11310.0000 1.0000
45.9800 11498.0000 1.0000
46.0000 11256.0000 1.0000
46.0200 11058.0000 1.0000
46.0400 11164.0000 1.0000
46.0600 11134.0000 1.0000
46.0800 11184.0000 1.0000
46.1000 11467.0000 1.0000
46.1200 11333.0000 1.0000
46.1400 11367.0000 1.0000
46.1600 11353.0000 1.0000
46.1800 11290.0000 1.0000
46.2000 11161.0000 1.0000
46.2200 11132.0000 1.0000
46.2400 11075.0000 1.0000
46.2600 11319.0000 1.0000
46.2800 11114.0000 1.0000
46.3000 11221.0000 1.0000
46.3200 11291.0000 1.0000
46.3400 11518.0000 1.0000
46.3600 11260.0000 1.0000
46.3800 11236.0000 1.0000
46.4000 11201.0000 1.0000
46.4200 11161.0000 1.0000
46.4400 11307.0000 1.0000
46.4600 11335.0000 1.0000
46.4800 11216.0000 1.0000
46.5000 11114.0000 1.0000
46.5200 11172.0000 1.0000
46.5400 11155.0000 1.0000
46.5600 11161.0000 1.0000
46.5800 11318.0000 1.0000
46.6000 11236.0000 1.0000
46.6200 11143.0000 1.0000
46.6400 11226.0000 1.0000
46.6600 11275.0000 1.0000
46.6800 11053.0000 1.0000
46.7000 11295.0000 1.0000
46.7200 11394.0000 1.0000
46.7400 11363.0000 1.0000
46.7600 11090.0000 1.0000
46.7800 11193.0000 1.0000
46.8000 11362.0000 1.0000
46.8200 11311.0000 1.0000
46.8400 11222.0000 1.0000
46.8600 11225.0000 1.0000
46.8800 11221.0000 1.0000
46.9000 11608.0000 1.0000
46.9200 11331.0000 1.0000
46.9400 11161.0000 1.0000
46.9600 11287.0000 1.0000
46.9800 11122.0000 1.0000
47.0000 11213.0000 1.0000
47.0200 11238.0000 1.0000
47.0400 11139.0000 1.0000
47.0600 11299.0000 1.0000
47.0800 11194.0000 1.0000
47.1000 11272.0000 1.0000
47.1200 11292.0000 1.0000
47.1400 11310.0000 1.0000
47.1600 11194.0000 1.0000
47.1800 11347.0000 1.0000
47.2000 11232.0000 1.0000
47.2200 11228.0000 1.0000
47.2400 11491.0000 1.0000
47.2600 11257.0000 1.0000
47.2800 11417.0000 1.0000
47.3000 11460.0000 1.0000
47.3200 11020.0000 1.0000
47.3400 11211.0000 1.0000
47.3600 11392.0000 1.0000
47.3800 11245.0000 1.0000
47.4000 11184.0000 1.0000
47.4200 11230.0000 1.0000
47.4400 11188.0000 1.0000
47.4600 11218.0000 1.0000
47.4800 11320.0000 1.0000
47.5000 11348.0000 1.0000
47.5200 11317.0000 1.0000
47.5400 11167.0000 1.0000
47.5600 11139.0000 1.0000
47.5800 11117.0000 1.0000
47.6000 11166.0000 1.0000
47.6200 11246.0000 1.0000
47.6400 11228.0000 1.0000
47.6600 11252.0000 1.0000
47.6800 11220.0000 1.0000
47.7000 11296.0000 1.0000
47.7200 11322.0000 1.0000
47.7400 11030.0000 1.0000
47.7600 11277.0000 1.0000
47.7800 11060.0000 1.0000
47.8000 11007.0000 1.0000
47.8200 11391.0000 1.0000
47.8400 11420.0000 1.0000
47.8600 11366.0000 1.0000
47.8800 11199.0000 1.0000
47.9000 11028.0000 1.0000
47.9200 11013.0000 1.0000
47.9400 11187.0000 1.0000
47.9600 11181.0000 1.0000
47.9800 11252.0000 1.0000
48.0000 11337.0000 1.0000
48.0200 11005.0000 1.0000
48.0400 11210.0000 1.0000
48.0600 11268.0000 1.0000
48.0800 11319.0000 1.0000
48.1000 11130.0000 1.0000
48.1200 11095.0000 1.0000
48.1400 11257.0000 1.0000
48.1600 11151.0000 1.0000
48.1800 11090.0000 1.0000
48.2000 11350.0000 1.0000
48.2200 11175.0000 1.0000
48.2400 11138.0000 1.0000
48.2600 11161.0000 1.0000
48.2800 11237.0000 1.0000
48.3000 11163.0000 1.0000
48.3200 11273.0000 1.0000
48.3400 11155.0000 1.0000
48.3600 11219.0000 1.0000
48.3800 11268.0000 1.0000
48.4000 11294.0000 1.0000
48.4200 11083.0000 1.0000
48.4400 11371.0000 1.0000
48.4600 11353.0000 1.0000
48.4800 11354.0000 1.0000
48.5000 11247.0000 1.0000
48.5200 11229.0000 1.0000
48.5400 11304.0000 1.0000
48.5600 11416.0000 1.0000
48.5800 11213.0000 1.0000
48.6000 11205.0000 1.0000
48.6200 11262.0000 1.0000
48.6400 11263.0000 1.0000
48.6600 11080.0000 1.0000
48.6800 11324.0000 1.0000
48.7000 11166.0000 1.0000
48.7200 11137.0000 1.0000
48.7400 11097.0000 1.0000
48.7600 11286.0000 1.0000
48.7800 11288.0000 1.0000
48.8000 11489.0000 1.0000
48.8200 11233.0000 1.0000
48.8400 11175.0000 1.0000
48.8600 11277.0000 1.0000
48.8800 11222.0000 1.0000
48.9000 11301.0000 1.0000
48.9200 11242.0000 1.0000
48.9400 11293.0000 1.0000
48.9600 11153.0000 1.0000
48.9800 11094.0000 1.0000
49.0000 11296.0000 1.0000
49.0200 11172.0000 1.0000
49.0400 11314.0000 1.0000
49.0600 11248.0000 1.0000
49.0800 11315.0000 1.0000
49.1000 11236.0000 1.0000
49.1200 11188.0000 1.0000
49.1400 11439.0000 1.0000
49.1600 11397.0000 1.0000
49.1800 11566.0000 1.0000
49.2000 11582.0000 1.0000
49.2200 11849.0000 1.0000
49.2400 11531.0000 1.0000
49.2600 11748.0000 1.0000
49.2800 11833.0000 1.0000
49.3000 11833.0000 1.0000
49.3200 12012.0000 1.0000
49.3400 12174.0000 1.0000
49.3600 12444.0000 1.0000
49.3800 13001.0000 1.0000
49.4000 13709.0000 1.0000
49.4200 14341.0000 1.0000
49.4400 15191.0000 1.0000
49.4600 16155.0000 1.0000
49.4800 15814.0000 1.0000
49.5000 14680.0000 1.0000
49.5200 14134.0000 1.0000
49.5400 13922.0000 1.0000
49.5600 13900.0000 1.0000
49.5800 13963.0000 1.0000
49.6000 13658.0000 1.0000
49.6200 13435.0000 1.0000
49.6400 12876.0000 1.0000
49.6600 12568.0000 1.0000
49.6800 12073.0000 1.0000
49.7000 11992.0000 1.0000
49.7200 11764.0000 1.0000
49.7400 11544.0000 1.0000
49.7600 11575.0000 1.0000
49.7800 11451.0000 1.0000
49.8000 11338.0000 1.0000
49.8200 11286.0000 1.0000
49.8400 11331.0000 1.0000
49.8600 11348.0000 1.0000
49.8800 11458.0000 1.0000
49.9000 11588.0000 1.0000
49.9200 11429.0000 1.0000
49.9400 11275.0000 1.0000
49.9600 11233.0000 1.0000
49.9800 11267.0000 1.0000
50.0000 11432.0000 1.0000
50.0200 11391.0000 1.0000
50.0400 11368.0000 1.0000
50.0600 11553.0000 1.0000
50.0800 11698.0000 1.0000
50.1000 12097.0000 1.0000
50.1200 12721.0000 1.0000
50.1400 13075.0000 1.0000
50.1600 12637.0000 1.0000
50.1800 11958.0000 1.0000
50.2000 11588.0000 1.0000
50.2200 11599.0000 1.0000
50.2400 11929.0000 1.0000
50.2600 12049.0000 1.0000
50.2800 12308.0000 1.0000
50.3000 11754.0000 1.0000
50.3200 11392.0000 1.0000
50.3400 11317.0000 1.0000
50.3600 11153.0000 1.0000
50.3800 11507.0000 1.0000
50.4000 11275.0000 1.0000
50.4200 11389.0000 1.0000
50.4400 11233.0000 1.0000
50.4600 11232.0000 1.0000
50.4800 11415.0000 1.0000
50.5000 11348.0000 1.0000
50.5200 11232.0000 1.0000
50.5400 11109.0000 1.0000
50.5600 11257.0000 1.0000
50.5800 11411.0000 1.0000
50.6000 11368.0000 1.0000
50.6200 11456.0000 1.0000
50.6400 11285.0000 1.0000
50.6600 11149.0000 1.0000
50.6800 11394.0000 1.0000
50.7000 11219.0000 1.0000
50.7200 11449.0000 1.0000
50.7400 11230.0000 1.0000
50.7600 11229.0000 1.0000
50.7800 11258.0000 1.0000
50.8000 11133.0000 1.0000
50.8200 11071.0000 1.0000
50.8400 11417.0000 1.0000
50.8600 11270.0000 1.0000
50.8800 11188.0000 1.0000
50.9000 11219.0000 1.0000
50.9200 11224.0000 1.0000
50.9400 11403.0000 1.0000
50.9600 11406.0000 1.0000
50.9800 11280.0000 1.0000
51.0000 11392.0000 1.0000
51.0200 11364.0000 1.0000
51.0400 11347.0000 1.0000
51.0600 11316.0000 1.0000
51.0800 11290.0000 1.0000
51.1000 11280.0000 1.0000
51.1200 11282.0000 1.0000
51.1400 11162.0000 1.0000
51.1600 11310.0000 1.0000
51.1800 11240.0000 1.0000
51.2000 11210.0000 1.0000
51.2200 11044.0000 1.0000
51.2400 11325.0000 1.0000
51.2600 11203.0000 1.0000
51.2800 11196.0000 1.0000
51.3000 11192.0000 1.0000
51.3200 11236.0000 1.0000
51.3400 11188.0000 1.0000
51.3600 11234.0000 1.0000
51.3800 11091.0000 1.0000
51.4000 11276.0000 1.0000
51.4200 11189.0000 1.0000
51.4400 11309.0000 1.0000
51.4600 11296.0000 1.0000
51.4800 11190.0000 1.0000
51.5000 11375.0000 1.0000
51.5200 11265.0000 1.0000
51.5400 11215.0000 1.0000
51.5600 11235.0000 1.0000
51.5800 11267.0000 1.0000
51.6000 11252.0000 1.0000
51.6200 11233.0000 1.0000
51.6400 11394.0000 1.0000
51.6600 11290.0000 1.0000
51.6800 11299.0000 1.0000
51.7000 11268.0000 1.0000
51.7200 11343.0000 1.0000
51.7400 11109.0000 1.0000
51.7600 11195.0000 1.0000
51.7800 11227.0000 1.0000
51.8000 11113.0000 1.0000
51.8200 11122.0000 1.0000
51.8400 11284.0000 1.0000
51.8600 11192.0000 1.0000
51.8800 11336.0000 1.0000
51.9000 11251.0000 1.0000
51.9200 11348.0000 1.0000
51.9400 11057.0000 1.0000
51.9600 11341.0000 1.0000
51.9800 11363.0000 1.0000
52.0000 11206.0000 1.0000
52.0200 11177.0000 1.0000
52.0400 11158.0000 1.0000
52.0600 11306.0000 1.0000
52.0800 11429.0000 1.0000
52.1000 11442.0000 1.0000
52.1200 11523.0000 1.0000
52.1400 11322.0000 1.0000
52.1600 11315.0000 1.0000
52.1800 11213.0000 1.0000
52.2000 11505.0000 1.0000
52.2200 11533.0000 1.0000
52.2400 11460.0000 1.0000
52.2600 11564.0000 1.0000
52.2800 11569.0000 1.0000
52.3000 11644.0000 1.0000
52.3200 11633.0000 1.0000
52.3400 11698.0000 1.0000
52.3600 11652.0000 1.0000
52.3800 11801.0000 1.0000
52.4000 11976.0000 1.0000
52.4200 11970.0000 1.0000
52.4400 12298.0000 1.0000
52.4600 12582.0000 1.0000
52.4800 12821.0000 1.0000
52.5000 13358.0000 1.0000
52.5200 13659.0000 1.0000
52.5400 14183.0000 1.0000
52.5600 14401.0000 1.0000
52.5800 13845.0000 1.0000
52.6000 13206.0000 1.0000
52.6200 13036.0000 1.0000
52.6400 12984.0000 1.0000
52.6600 12914.0000 1.0000
52.6800 12911.0000 1.0000
52.7000 13008.0000 1.0000
52.7200 12529.0000 1.0000
52.7400 12218.0000 1.0000
52.7600 12243.0000 1.0000
52.7800 11909.0000 1.0000
52.8000 11868.0000 1.0000
52.8200 11721.0000 1.0000
52.8400 11441.0000 1.0000
52.8600 11620.0000 1.0000
52.8800 11365.0000 1.0000
52.9000 11415.0000 1.0000
52.9200 11563.0000 1.0000
52.9400 11420.0000 1.0000
52.9600 11356.0000 1.0000
52.9800 11452.0000 1.0000
53.0000 11294.0000 1.0000
53.0200 11500.0000 1.0000
53.0400 11369.0000 1.0000
53.0600 11459.0000 1.0000
53.0800 11199.0000 1.0000
53.1000 11309.0000 1.0000
53.1200 11366.0000 1.0000
53.1400 11249.0000 1.0000
53.1600 11542.0000 1.0000
53.1800 11368.0000 1.0000
53.2000 11342.0000 1.0000
53.2200 11389.0000 1.0000
53.2400 11295.0000 1.0000
53.2600 11304.0000 1.0000
53.2800 11471.0000 1.0000
53.3000 11397.0000 1.0000
53.3200 11353.0000 1.0000
53.3400 11367.0000 1.0000
53.3600 11458.0000 1.0000
53.3800 11556.0000 1.0000
53.4000 11496.0000 1.0000
53.4200 11708.0000 1.0000
53.4400 11673.0000 1.0000
53.4600 11939.0000 1.0000
53.4800 12016.0000 1.0000
53.5000 12190.0000 1.0000
53.5200 12136.0000 1.0000
53.5400 12119.0000 1.0000
53.5600 11991.0000 1.0000
53.5800 11972.0000 1.0000
53.6000 12005.0000 1.0000
53.6200 11962.0000 1.0000
53.6400 11800.0000 1.0000
53.6600 11874.0000 1.0000
53.6800 11720.0000 1.0000
53.7000 11921.0000 1.0000
53.7200 11942.0000 1.0000
53.7400 11883.0000 1.0000
53.7600 11813.0000 1.0000
53.7800 11663.0000 1.0000
53.8000 11931.0000 1.0000
53.8200 11783.0000 1.0000
53.8400 11920.0000 1.0000
53.8600 11790.0000 1.0000
53.8800 11927.0000 1.0000
53.9000 12017.0000 1.0000
53.9200 12301.0000 1.0000
53.9400 12365.0000 1.0000
53.9600 12706.0000 1.0000
53.9800 13234.0000 1.0000
54.0000 13848.0000 1.0000
54.0200 14782.0000 1.0000
54.0400 15724.0000 1.0000
54.0600 16758.0000 1.0000
54.0800 16571.0000 1.0000
54.1000 15922.0000 1.0000
54.1200 15025.0000 1.0000
54.1400 14418.0000 1.0000
54.1600 14184.0000 1.0000
54.1800 14356.0000 1.0000
54.2000 14468.0000 1.0000
54.2200 14722.0000 1.0000
54.2400 13811.0000 1.0000
54.2600 13366.0000 1.0000
54.2800 12744.0000 1.0000
54.3000 12280.0000 1.0000
54.3200 12229.0000 1.0000
54.3400 11821.0000 1.0000
54.3600 11779.0000 1.0000
54.3800 11755.0000 1.0000
54.4000 11305.0000 1.0000
54.4200 11427.0000 1.0000
54.4400 11236.0000 1.0000
54.4600 11497.0000 1.0000
54.4800 11439.0000 1.0000
54.5000 11555.0000 1.0000
54.5200 11360.0000 1.0000
54.5400 11397.0000 1.0000
54.5600 11384.0000 1.0000
54.5800 11222.0000 1.0000
54.6000 11273.0000 1.0000
54.6200 11280.0000 1.0000
54.6400 11373.0000 1.0000
54.6600 11294.0000 1.0000
54.6800 11110.0000 1.0000
54.7000 11222.0000 1.0000
54.7200 11194.0000 1.0000
54.7400 11103.0000 1.0000
54.7600 11341.0000 1.0000
54.7800 11300.0000 1.0000
54.8000 11294.0000 1.0000
54.8200 11479.0000 1.0000
54.8400 11397.0000 1.0000
54.8600 11627.0000 1.0000
54.8800 11367.0000 1.0000
54.9000 11445.0000 1.0000
54.9200 11165.0000 1.0000
54.9400 11437.0000 1.0000
54.9600 11228.0000 1.0000
54.9800 11380.0000 1.0000
55.0000 11651.0000 1.0000
55.0200 11191.0000 1.0000
55.0400 11263.0000 1.0000
55.0600 11382.0000 1.0000
55.0800 11245.0000 1.0000
55.1000 11153.0000 1.0000
55.1200 11219.0000 1.0000
55.1400 11248.0000 1.0000
55.1600 11242.0000 1.0000
55.1800 11258.0000 1.0000
55.2000 11301.0000 1.0000
55.2200 11248.0000 1.0000
55.2400 11342.0000 1.0000
55.2600 11433.0000 1.0000
55.2800 11453.0000 1.0000
55.3000 11282.0000 1.0000
55.3200 11209.0000 1.0000
55.3400 11349.0000 1.0000
55.3600 11369.0000 1.0000
55.3800 11132.0000 1.0000
55.4000 11260.0000 1.0000
55.4200 11408.0000 1.0000
55.4400 11280.0000 1.0000
55.4600 11268.0000 1.0000
55.4800 11416.0000 1.0000
55.5000 11471.0000 1.0000
55.5200 11208.0000 1.0000
55.5400 11393.0000 1.0000
55.5600 11420.0000 1.0000
55.5800 11130.0000 1.0000
55.6000 11358.0000 1.0000
55.6200 11256.0000 1.0000
55.6400 11416.0000 1.0000
55.6600 11393.0000 1.0000
55.6800 11353.0000 1.0000
55.7000 11260.0000 1.0000
55.7200 11165.0000 1.0000
55.7400 11381.0000 1.0000
55.7600 11326.0000 1.0000
55.7800 11298.0000 1.0000
55.8000 11141.0000 1.0000
55.8200 11477.0000 1.0000
55.8400 11421.0000 1.0000
55.8600 11373.0000 1.0000
55.8800 11423.0000 1.0000
55.9000 11187.0000 1.0000
55.9200 11219.0000 1.0000
55.9400 11382.0000 1.0000
55.9600 11109.0000 1.0000
55.9800 11498.0000 1.0000
56.0000 11197.0000 1.0000
56.0200 11440.0000 1.0000
56.0400 11233.0000 1.0000
56.0600 10995.0000 1.0000
56.0800 11330.0000 1.0000
56.1000 11236.0000 1.0000
56.1200 11343.0000 1.0000
56.1400 11211.0000 1.0000
56.1600 11328.0000 1.0000
56.1800 11304.0000 1.0000
56.2000 11392.0000 1.0000
56.2200 11280.0000 1.0000
56.2400 11391.0000 1.0000
56.2600 11352.0000 1.0000
56.2800 11415.0000 1.0000
56.3000 11201.0000 1.0000
56.3200 11090.0000 1.0000
56.3400 11314.0000 1.0000
56.3600 11353.0000 1.0000
56.3800 11349.0000 1.0000
56.4000 11349.0000 1.0000
56.4200 11372.0000 1.0000
56.4400 11298.0000 1.0000
56.4600 11424.0000 1.0000
56.4800 11460.0000 1.0000
56.5000 11440.0000 1.0000
56.5200 11369.0000 1.0000
56.5400 11346.0000 1.0000
56.5600 11210.0000 1.0000
56.5800 11180.0000 1.0000
56.6000 11360.0000 1.0000
56.6200 11345.0000 1.0000
56.6400 11428.0000 1.0000
56.6600 11501.0000 1.0000
56.6800 11478.0000 1.0000
56.7000 11460.0000 1.0000
56.7200 11398.0000 1.0000
56.7400 11370.0000 1.0000
56.7600 11503.0000 1.0000
56.7800 11491.0000 1.0000
56.8000 11610.0000 1.0000
56.8200 11657.0000 1.0000
56.8400 11810.0000 1.0000
56.8600 11804.0000 1.0000
56.8800 11678.0000 1.0000
56.9000 11975.0000 1.0000
56.9200 12214.0000 1.0000
56.9400 12555.0000 1.0000
56.9600 12866.0000 1.0000
56.9800 13314.0000 1.0000
57.0000 13857.0000 1.0000
57.0200 14014.0000 1.0000
57.0400 13885.0000 1.0000
57.0600 13724.0000 1.0000
57.0800 13597.0000 1.0000
57.1000 13537.0000 1.0000
57.1200 13645.0000 1.0000
57.1400 13600.0000 1.0000
57.1600 13440.0000 1.0000
57.1800 13719.0000 1.0000
57.2000 13429.0000 1.0000
57.2200 13292.0000 1.0000
57.2400 13336.0000 1.0000
57.2600 13177.0000 1.0000
57.2800 13039.0000 1.0000
57.3000 12905.0000 1.0000
57.3200 13192.0000 1.0000
57.3400 13105.0000 1.0000
57.3600 13118.0000 1.0000
57.3800 13594.0000 1.0000
57.4000 14076.0000 1.0000
57.4200 14702.0000 1.0000
57.4400 15526.0000 1.0000
57.4600 16489.0000 1.0000
57.4800 17175.0000 1.0000
57.5000 17811.0000 1.0000
57.5200 17331.0000 1.0000
57.5400 16273.0000 1.0000
57.5600 15612.0000 1.0000
57.5800 15773.0000 1.0000
57.6000 15316.0000 1.0000
57.6200 15574.0000 1.0000
57.6400 15688.0000 1.0000
57.6600 15201.0000 1.0000
57.6800 14564.0000 1.0000
57.7000 14068.0000 1.0000
57.7200 13486.0000 1.0000
57.7400 13024.0000 1.0000
57.7600 12736.0000 1.0000
57.7800 12706.0000 1.0000
57.8000 12546.0000 1.0000
57.8200 12180.0000 1.0000
57.8400 12006.0000 1.0000
57.8600 11843.0000 1.0000
57.8800 11670.0000 1.0000
57.9000 11686.0000 1.0000
57.9200 11585.0000 1.0000
57.9400 11616.0000 1.0000
57.9600 11604.0000 1.0000
57.9800 11674.0000 1.0000
58.0000 11540.0000 1.0000
58.0200 11518.0000 1.0000
58.0400 11331.0000 1.0000
58.0600 11552.0000 1.0000
58.0800 11380.0000 1.0000
58.1000 11445.0000 1.0000
58.1200 11471.0000 1.0000
58.1400 11579.0000 1.0000
58.1600 11427.0000 1.0000
58.1800 11352.0000 1.0000
58.2000 11359.0000 1.0000
58.2200 11471.0000 1.0000
58.2400 11376.0000 1.0000
58.2600 11272.0000 1.0000
58.2800 11393.0000 1.0000
58.3000 11167.0000 1.0000
58.3200 11553.0000 1.0000
58.3400 11348.0000 1.0000
58.3600 11348.0000 1.0000
58.3800 11329.0000 1.0000
58.4000 11423.0000 1.0000
58.4200 11215.0000 1.0000
58.4400 11393.0000 1.0000
58.4600 11348.0000 1.0000
58.4800 11073.0000 1.0000
58.5000 11332.0000 1.0000
58.5200 11240.0000 1.0000
58.5400 11215.0000 1.0000
58.5600 11167.0000 1.0000
58.5800 11188.0000 1.0000
58.6000 11277.0000 1.0000
58.6200 11132.0000 1.0000
58.6400 11391.0000 1.0000
58.6600 11215.0000 1.0000
58.6800 11374.0000 1.0000
58.7000 11320.0000 1.0000
58.7200 11243.0000 1.0000
58.7400 11238.0000 1.0000
58.7600 11205.0000 1.0000
58.7800 11396.0000 1.0000
58.8000 11246.0000 1.0000
58.8200 11400.0000 1.0000
58.8400 11221.0000 1.0000
58.8600 11299.0000 1.0000
58.8800 11139.0000 1.0000
58.9000 11275.0000 1.0000
58.9200 11177.0000 1.0000
58.9400 11225.0000 1.0000
58.9600 11241.0000 1.0000
58.9800 11254.0000 1.0000
59.0000 11230.0000 1.0000
59.0200 11273.0000 1.0000
59.0400 11111.0000 1.0000
59.0600 11209.0000 1.0000
59.0800 11307.0000 1.0000
59.1000 11333.0000 1.0000
59.1200 11273.0000 1.0000
59.1400 11180.0000 1.0000
59.1600 11354.0000 1.0000
59.1800 11426.0000 1.0000
59.2000 11265.0000 1.0000
59.2200 11219.0000 1.0000
59.2400 11311.0000 1.0000
59.2600 11359.0000 1.0000
59.2800 11251.0000 1.0000
59.3000 11198.0000 1.0000
59.3200 11192.0000 1.0000
59.3400 11189.0000 1.0000
59.3600 11294.0000 1.0000
59.3800 11151.0000 1.0000
59.4000 11168.0000 1.0000
59.4200 11378.0000 1.0000
59.4400 11193.0000 1.0000
59.4600 11265.0000 1.0000
59.4800 11168.0000 1.0000
59.5000 11321.0000 1.0000
59.5200 11395.0000 1.0000
59.5400 11155.0000 1.0000
59.5600 11221.0000 1.0000
59.5800 11378.0000 1.0000
59.6000 11314.0000 1.0000
59.6200 11389.0000 1.0000
59.6400 11229.0000 1.0000
59.6600 11286.0000 1.0000
59.6800 11274.0000 1.0000
59.7000 11369.0000 1.0000
59.7200 11444.0000 1.0000
59.7400 11618.0000 1.0000
59.7600 11288.0000 1.0000
59.7800 11398.0000 1.0000
59.8000 11266.0000 1.0000
59.8200 11348.0000 1.0000
59.8400 11402.0000 1.0000
59.8600 11413.0000 1.0000
59.8800 11629.0000 1.0000
59.9000 11690.0000 1.0000
59.9200 11775.0000 1.0000
59.9400 11984.0000 1.0000
59.9600 12020.0000 1.0000
59.9800 11724.0000 1.0000
60.0000 11631.0000 1.0000
60.0200 11439.0000 1.0000
60.0400 11514.0000 1.0000
60.0600 11570.0000 1.0000
60.0800 11608.0000 1.0000
60.1000 11698.0000 1.0000
60.1200 11505.0000 1.0000
60.1400 11623.0000 1.0000
60.1600 11404.0000 1.0000
60.1800 11416.0000 1.0000
60.2000 11257.0000 1.0000
60.2200 11053.0000 1.0000
60.2400 11247.0000 1.0000
60.2600 11318.0000 1.0000
60.2800 11126.0000 1.0000
60.3000 11170.0000 1.0000
60.3200 11340.0000 1.0000
60.3400 11267.0000 1.0000
60.3600 11288.0000 1.0000
60.3800 11212.0000 1.0000
60.4000 11273.0000 1.0000
60.4200 11374.0000 1.0000
60.4400 11216.0000 1.0000
60.4600 11165.0000 1.0000
60.4800 11288.0000 1.0000
60.5000 11132.0000 1.0000
60.5200 11395.0000 1.0000
60.5400 11530.0000 1.0000
60.5600 11237.0000 1.0000
60.5800 11444.0000 1.0000
60.6000 11330.0000 1.0000
60.6200 11268.0000 1.0000
60.6400 11321.0000 1.0000
60.6600 11453.0000 1.0000
60.6800 11347.0000 1.0000
60.7000 11097.0000 1.0000
60.7200 11061.0000 1.0000
60.7400 11469.0000 1.0000
60.7600 11277.0000 1.0000
60.7800 11280.0000 1.0000
60.8000 11153.0000 1.0000
60.8200 11202.0000 1.0000
60.8400 11363.0000 1.0000
60.8600 11301.0000 1.0000
60.8800 11460.0000 1.0000
60.9000 11253.0000 1.0000
60.9200 11271.0000 1.0000
60.9400 11228.0000 1.0000
60.9600 11264.0000 1.0000
60.9800 11482.0000 1.0000
61.0000 11401.0000 1.0000
61.0200 11290.0000 1.0000
61.0400 11255.0000 1.0000
61.0600 11459.0000 1.0000
61.0800 11233.0000 1.0000
61.1000 11441.0000 1.0000
61.1200 11520.0000 1.0000
61.1400 11802.0000 1.0000
61.1600 11668.0000 1.0000
61.1800 11477.0000 1.0000
61.2000 11347.0000 1.0000
61.2200 11589.0000 1.0000
61.2400 11594.0000 1.0000
61.2600 11723.0000 1.0000
61.2800 11896.0000 1.0000
61.3000 11766.0000 1.0000
61.3200 11929.0000 1.0000
61.3400 11518.0000 1.0000
61.3600 11700.0000 1.0000
61.3800 11323.0000 1.0000
61.4000 11560.0000 1.0000
61.4200 11538.0000 1.0000
61.4400 11466.0000 1.0000
61.4600 11576.0000 1.0000
61.4800 11580.0000 1.0000
61.5000 11536.0000 1.0000
61.5200 11370.0000 1.0000
61.5400 11446.0000 1.0000
61.5600 11251.0000 1.0000
61.5800 11485.0000 1.0000
61.6000 11441.0000 1.0000
61.6200 11438.0000 1.0000
61.6400 11471.0000 1.0000
61.6600 11324.0000 1.0000
61.6800 11328.0000 1.0000
61.7000 11340.0000 1.0000
61.7200 11109.0000 1.0000
61.7400 11124.0000 1.0000
61.7600 11228.0000 1.0000
61.7800 11345.0000 1.0000
61.8000 11351.0000 1.0000
61.8200 11348.0000 1.0000
61.8400 11208.0000 1.0000
61.8600 11282.0000 1.0000
61.8800 11203.0000 1.0000
61.9000 11491.0000 1.0000
61.9200 11302.0000 1.0000
61.9400 11334.0000 1.0000
61.9600 11300.0000 1.0000
61.9800 11312.0000 1.0000
62.0000 11354.0000 1.0000
62.0200 11505.0000 1.0000
62.0400 11446.0000 1.0000
62.0600 11478.0000 1.0000
62.0800 11508.0000 1.0000
62.1000 11354.0000 1.0000
62.1200 11290.0000 1.0000
62.1400 11405.0000 1.0000
62.1600 11572.0000 1.0000
62.1800 11517.0000 1.0000
62.2000 11644.0000 1.0000
62.2200 11678.0000 1.0000
62.2400 11700.0000 1.0000
62.2600 11911.0000 1.0000
62.2800 12066.0000 1.0000
62.3000 12068.0000 1.0000
62.3200 12324.0000 1.0000
62.3400 12689.0000 1.0000
62.3600 13126.0000 1.0000
62.3800 13629.0000 1.0000
62.4000 14255.0000 1.0000
62.4200 15009.0000 1.0000
62.4400 15335.0000 1.0000
62.4600 15059.0000 1.0000
62.4800 14495.0000 1.0000
62.5000 14290.0000 1.0000
62.5200 14397.0000 1.0000
62.5400 14728.0000 1.0000
62.5600 15101.0000 1.0000
62.5800 15956.0000 1.0000
62.6000 16361.0000 1.0000
62.6200 16769.0000 1.0000
62.6400 16363.0000 1.0000
62.6600 15770.0000 1.0000
62.6800 15079.0000 1.0000
62.7000 14460.0000 1.0000
62.7200 14222.0000 1.0000
62.7400 14137.0000 1.0000
62.7600 14194.0000 1.0000
62.7800 14136.0000 1.0000
62.8000 13860.0000 1.0000
62.8200 13542.0000 1.0000
62.8400 13467.0000 1.0000
62.8600 12930.0000 1.0000
62.8800 12785.0000 1.0000
62.9000 12441.0000 1.0000
62.9200 12340.0000 1.0000
62.9400 12180.0000 1.0000
62.9600 11828.0000 1.0000
62.9800 11819.0000 1.0000
63.0000 11709.0000 1.0000
63.0200 11663.0000 1.0000
63.0400 11639.0000 1.0000
63.0600 11594.0000 1.0000
63.0800 11506.0000 1.0000
63.1000 11623.0000 1.0000
63.1200 11455.0000 1.0000
63.1400 11280.0000 1.0000
63.1600 11432.0000 1.0000
63.1800 11463.0000 1.0000
63.2000 11507.0000 1.0000
63.2200 11336.0000 1.0000
63.2400 11379.0000 1.0000
63.2600 11513.0000 1.0000
63.2800 11359.0000 1.0000
63.3000 11164.0000 1.0000
63.3200 11352.0000 1.0000
63.3400 11369.0000 1.0000
63.3600 11404.0000 1.0000
63.3800 11439.0000 1.0000
63.4000 11257.0000 1.0000
63.4200 11363.0000 1.0000
63.4400 11428.0000 1.0000
63.4600 11601.0000 1.0000
63.4800 11426.0000 1.0000
63.5000 11466.0000 1.0000
63.5200 11498.0000 1.0000
63.5400 11361.0000 1.0000
63.5600 11370.0000 1.0000
63.5800 11435.0000 1.0000
63.6000 11351.0000 1.0000
63.6200 11404.0000 1.0000
63.6400 11207.0000 1.0000
63.6600 11399.0000 1.0000
63.6800 11462.0000 1.0000
63.7000 11429.0000 1.0000
63.7200 11462.0000 1.0000
63.7400 11404.0000 1.0000
63.7600 11427.0000 1.0000
63.7800 11747.0000 1.0000
63.8000 11840.0000 1.0000
63.8200 11828.0000 1.0000
63.8400 11967.0000 1.0000
63.8600 11856.0000 1.0000
63.8800 12070.0000 1.0000
63.9000 12281.0000 1.0000
63.9200 12760.0000 1.0000
63.9400 13164.0000 1.0000
63.9600 13769.0000 1.0000
63.9800 14638.0000 1.0000
64.0000 14889.0000 1.0000
64.0200 14642.0000 1.0000
64.0400 14163.0000 1.0000
64.0600 13243.0000 1.0000
64.0800 12831.0000 1.0000
64.1000 12952.0000 1.0000
64.1200 12943.0000 1.0000
64.1400 13162.0000 1.0000
64.1600 13166.0000 1.0000
64.1800 13266.0000 1.0000
64.2000 12962.0000 1.0000
64.2200 12591.0000 1.0000
64.2400 12241.0000 1.0000
64.2600 12145.0000 1.0000
64.2800 12059.0000 1.0000
64.3000 11724.0000 1.0000
64.3200 11589.0000 1.0000
64.3400 11645.0000 1.0000
64.3600 11507.0000 1.0000
64.3800 11620.0000 1.0000
64.4000 11632.0000 1.0000
64.4200 11407.0000 1.0000
64.4400 11083.0000 1.0000
64.4600 11393.0000 1.0000
64.4800 11211.0000 1.0000
64.5000 11100.0000 1.0000
64.5200 11295.0000 1.0000
64.5400 11338.0000 1.0000
64.5600 11351.0000 1.0000
64.5800 11343.0000 1.0000
64.6000 11387.0000 1.0000
64.6200 11471.0000 1.0000
64.6400 11197.0000 1.0000
64.6600 11116.0000 1.0000
64.6800 11341.0000 1.0000
64.7000 11131.0000 1.0000
64.7200 11338.0000 1.0000
64.7400 11410.0000 1.0000
64.7600 11416.0000 1.0000
64.7800 11425.0000 1.0000
64.8000 11264.0000 1.0000
64.8200 11249.0000 1.0000
64.8400 11222.0000 1.0000
64.8600 11255.0000 1.0000
64.8800 11200.0000 1.0000
64.9000 11261.0000 1.0000
64.9200 11401.0000 1.0000
64.9400 11273.0000 1.0000
64.9600 11284.0000 1.0000
64.9800 11481.0000 1.0000
65.0000 11273.0000 1.0000
65.0200 11300.0000 1.0000
65.0400 11174.0000 1.0000
65.0600 11228.0000 1.0000
65.0800 11421.0000 1.0000
65.1000 11342.0000 1.0000
65.1200 11233.0000 1.0000
65.1400 11276.0000 1.0000
65.1600 11370.0000 1.0000
65.1800 11310.0000 1.0000
65.2000 11345.0000 1.0000
65.2200 11103.0000 1.0000
65.2400 11218.0000 1.0000
65.2600 11289.0000 1.0000
65.2800 11410.0000 1.0000
65.3000 11231.0000 1.0000
65.3200 11139.0000 1.0000
65.3400 11369.0000 1.0000
65.3600 11081.0000 1.0000
65.3800 11238.0000 1.0000
65.4000 11206.0000 1.0000
65.4200 11344.0000 1.0000
65.4400 11303.0000 1.0000
65.4600 11174.0000 1.0000
65.4800 11268.0000 1.0000
65.5000 11274.0000 1.0000
65.5200 11239.0000 1.0000
65.5400 11195.0000 1.0000
65.5600 11365.0000 1.0000
65.5800 11192.0000 1.0000
65.6000 11298.0000 1.0000
65.6200 11222.0000 1.0000
65.6400 11198.0000 1.0000
65.6600 11370.0000 1.0000
65.6800 11249.0000 1.0000
65.7000 11194.0000 1.0000
65.7200 11412.0000 1.0000
65.7400 11521.0000 1.0000
65.7600 11278.0000 1.0000
65.7800 11574.0000 1.0000
65.8000 11267.0000 1.0000
65.8200 11381.0000 1.0000
65.8400 11478.0000 1.0000
65.8600 11310.0000 1.0000
65.8800 11419.0000 1.0000
65.9000 11539.0000 1.0000
65.9200 11458.0000 1.0000
65.9400 11477.0000 1.0000
65.9600 11356.0000 1.0000
65.9800 11505.0000 1.0000
66.0000 11432.0000 1.0000
66.0200 11589.0000 1.0000
66.0400 11485.0000 1.0000
66.0600 11193.0000 1.0000
66.0800 11334.0000 1.0000
66.1000 11429.0000 1.0000
66.1200 11616.0000 1.0000
66.1400 11426.0000 1.0000
66.1600 11595.0000 1.0000
66.1800 11598.0000 1.0000
66.2000 11499.0000 1.0000
66.2200 11735.0000 1.0000
66.2400 11564.0000 1.0000
66.2600 11747.0000 1.0000
66.2800 11764.0000 1.0000
66.3000 11519.0000 1.0000
66.3200 11799.0000 1.0000
66.3400 11900.0000 1.0000
66.3600 12003.0000 1.0000
66.3800 11977.0000 1.0000
66.4000 11961.0000 1.0000
66.4200 12197.0000 1.0000
66.4400 12304.0000 1.0000
66.4600 12721.0000 1.0000
66.4800 13438.0000 1.0000
66.5000 13376.0000 1.0000
66.5200 13304.0000 1.0000
66.5400 13055.0000 1.0000
66.5600 12776.0000 1.0000
66.5800 12378.0000 1.0000
66.6000 12316.0000 1.0000
66.6200 12167.0000 1.0000
66.6400 12460.0000 1.0000
66.6600 12164.0000 1.0000
66.6800 12513.0000 1.0000
66.7000 12524.0000 1.0000
66.7200 12444.0000 1.0000
66.7400 12030.0000 1.0000
66.7600 12098.0000 1.0000
66.7800 11802.0000 1.0000
66.8000 11831.0000 1.0000
66.8200 11699.0000 1.0000
66.8400 11407.0000 1.0000
66.8600 11359.0000 1.0000
66.8800 11484.0000 1.0000
66.9000 11398.0000 1.0000
66.9200 11608.0000 1.0000
66.9400 11281.0000 1.0000
66.9600 11600.0000 1.0000
66.9800 11566.0000 1.0000
67.0000 11295.0000 1.0000
67.0200 11254.0000 1.0000
67.0400 11228.0000 1.0000
67.0600 11288.0000 1.0000
67.0800 11191.0000 1.0000
67.1000 11397.0000 1.0000
67.1200 11315.0000 1.0000
67.1400 11320.0000 1.0000
67.1600 11324.0000 1.0000
67.1800 11348.0000 1.0000
67.2000 11382.0000 1.0000
67.2200 11330.0000 1.0000
67.2400 11280.0000 1.0000
67.2600 11306.0000 1.0000
67.2800 11436.0000 1.0000
67.3000 11425.0000 1.0000
67.3200 11456.0000 1.0000
67.3400 11403.0000 1.0000
67.3600 11329.0000 1.0000
67.3800 11242.0000 1.0000
67.4000 11345.0000 1.0000
67.4200 11308.0000 1.0000
67.4400 11269.0000 1.0000
67.4600 11307.0000 1.0000
67.4800 11445.0000 1.0000
67.5000 11333.0000 1.0000
67.5200 11441.0000 1.0000
67.5400 11321.0000 1.0000
67.5600 11533.0000 1.0000
67.5800 11372.0000 1.0000
67.6000 11312.0000 1.0000
67.6200 11634.0000 1.0000
67.6400 11560.0000 1.0000
67.6600 11436.0000 1.0000
67.6800 11531.0000 1.0000
67.7000 11715.0000 1.0000
67.7200 11519.0000 1.0000
67.7400 11747.0000 1.0000
67.7600 11505.0000 1.0000
67.7800 11455.0000 1.0000
67.8000 11565.0000 1.0000
67.8200 11547.0000 1.0000
67.8400 11665.0000 1.0000
67.8600 11730.0000 1.0000
67.8800 11501.0000 1.0000
67.9000 11858.0000 1.0000
67.9200 11914.0000 1.0000
67.9400 11948.0000 1.0000
67.9600 11912.0000 1.0000
67.9800 11775.0000 1.0000
68.0000 11940.0000 1.0000
68.0200 11932.0000 1.0000
68.0400 12108.0000 1.0000
68.0600 12182.0000 1.0000
68.0800 12384.0000 1.0000
68.1000 12955.0000 1.0000
68.1200 13093.0000 1.0000
68.1400 13731.0000 1.0000
68.1600 14165.0000 1.0000
68.1800 14623.0000 1.0000
68.2000 14642.0000 1.0000
68.2200 14673.0000 1.0000
68.2400 14189.0000 1.0000
68.2600 13572.0000 1.0000
68.2800 13160.0000 1.0000
68.3000 13219.0000 1.0000
68.3200 12978.0000 1.0000
68.3400 13331.0000 1.0000
68.3600 13118.0000 1.0000
68.3800 13341.0000 1.0000
68.4000 13162.0000 1.0000
68.4200 12781.0000 1.0000
68.4400 12667.0000 1.0000
68.4600 12414.0000 1.0000
68.4800 12128.0000 1.0000
68.5000 11955.0000 1.0000
68.5200 11924.0000 1.0000
68.5400 11924.0000 1.0000
68.5600 11665.0000 1.0000
68.5800 11662.0000 1.0000
68.6000 11514.0000 1.0000
68.6200 11538.0000 1.0000
68.6400 11353.0000 1.0000
68.6600 11304.0000 1.0000
68.6800 11583.0000 1.0000
68.7000 11521.0000 1.0000
68.7200 11392.0000 1.0000
68.7400 11363.0000 1.0000
68.7600 11450.0000 1.0000
68.7800 11369.0000 1.0000
68.8000 11342.0000 1.0000
68.8200 11372.0000 1.0000
68.8400 11247.0000 1.0000
68.8600 11387.0000 1.0000
68.8800 11337.0000 1.0000
68.9000 11467.0000 1.0000
68.9200 11318.0000 1.0000
68.9400 11140.0000 1.0000
68.9600 11296.0000 1.0000
68.9800 11324.0000 1.0000
69.0000 11154.0000 1.0000
69.0200 11308.0000 1.0000
69.0400 11213.0000 1.0000
69.0600 11209.0000 1.0000
69.0800 11172.0000 1.0000
69.1000 11242.0000 1.0000
69.1200 11256.0000 1.0000
69.1400 11219.0000 1.0000
69.1600 11512.0000 1.0000
69.1800 11209.0000 1.0000
69.2000 11399.0000 1.0000
69.2200 11259.0000 1.0000
69.2400 11221.0000 1.0000
69.2600 11546.0000 1.0000
69.2800 11225.0000 1.0000
69.3000 11187.0000 1.0000
69.3200 11243.0000 1.0000
69.3400 11129.0000 1.0000
69.3600 11317.0000 1.0000
69.3800 11377.0000 1.0000
69.4000 11311.0000 1.0000
69.4200 11201.0000 1.0000
69.4400 11488.0000 1.0000
69.4600 11442.0000 1.0000
69.4800 11569.0000 1.0000
69.5000 11349.0000 1.0000
69.5200 11180.0000 1.0000
69.5400 11487.0000 1.0000
69.5600 11642.0000 1.0000
69.5800 11672.0000 1.0000
69.6000 11665.0000 1.0000
69.6200 11733.0000 1.0000
69.6400 11578.0000 1.0000
69.6600 11473.0000 1.0000
69.6800 11295.0000 1.0000
69.7000 11319.0000 1.0000
69.7200 11352.0000 1.0000
69.7400 11349.0000 1.0000
69.7600 11444.0000 1.0000
69.7800 11598.0000 1.0000
69.8000 11387.0000 1.0000
69.8200 11528.0000 1.0000
69.8400 11215.0000 1.0000
69.8600 11411.0000 1.0000
69.8800 11377.0000 1.0000
69.9000 11221.0000 1.0000
69.9200 11277.0000 1.0000
69.9400 11280.0000 1.0000
69.9600 11368.0000 1.0000
69.9800 11324.0000 1.0000
70.0000 11223.0000 1.0000
70.0200 11327.0000 1.0000
70.0400 11085.0000 1.0000
70.0600 11223.0000 1.0000
70.0800 11276.0000 1.0000
70.1000 11232.0000 1.0000
70.1200 11326.0000 1.0000
70.1400 11215.0000 1.0000
70.1600 11273.0000 1.0000
70.1800 11366.0000 1.0000
70.2000 11236.0000 1.0000
70.2200 11242.0000 1.0000
70.2400 11245.0000 1.0000
70.2600 11186.0000 1.0000
70.2800 11330.0000 1.0000
70.3000 11419.0000 1.0000
70.3200 11213.0000 1.0000
70.3400 11522.0000 1.0000
70.3600 11120.0000 1.0000
70.3800 11304.0000 1.0000
70.4000 11352.0000 1.0000
70.4200 11306.0000 1.0000
70.4400 11232.0000 1.0000
70.4600 11231.0000 1.0000
70.4800 11458.0000 1.0000
70.5000 11406.0000 1.0000
70.5200 11237.0000 1.0000
70.5400 11272.0000 1.0000
70.5600 11276.0000 1.0000
70.5800 11179.0000 1.0000
70.6000 11158.0000 1.0000
70.6200 11406.0000 1.0000
70.6400 11277.0000 1.0000
70.6600 11345.0000 1.0000
70.6800 11126.0000 1.0000
70.7000 11133.0000 1.0000
70.7200 11348.0000 1.0000
70.7400 11430.0000 1.0000
70.7600 11205.0000 1.0000
70.7800 11371.0000 1.0000
70.8000 11308.0000 1.0000
70.8200 11365.0000 1.0000
70.8400 11371.0000 1.0000
70.8600 11208.0000 1.0000
70.8800 11221.0000 1.0000
70.9000 11363.0000 1.0000
70.9200 11481.0000 1.0000
70.9400 11372.0000 1.0000
70.9600 11407.0000 1.0000
70.9800 11542.0000 1.0000
71.0000 11688.0000 1.0000
71.0200 11661.0000 1.0000
71.0400 11526.0000 1.0000
71.0600 11674.0000 1.0000
71.0800 11549.0000 1.0000
71.1000 11517.0000 1.0000
71.1200 11596.0000 1.0000
71.1400 11439.0000 1.0000
71.1600 11439.0000 1.0000
71.1800 11396.0000 1.0000
71.2000 11241.0000 1.0000
71.2200 11428.0000 1.0000
71.2400 11582.0000 1.0000
71.2600 11572.0000 1.0000
71.2800 11437.0000 1.0000
71.3000 11309.0000 1.0000
71.3200 11426.0000 1.0000
71.3400 11435.0000 1.0000
71.3600 11238.0000 1.0000
71.3800 11176.0000 1.0000
71.4000 11353.0000 1.0000
71.4200 11229.0000 1.0000
71.4400 11319.0000 1.0000
71.4600 11403.0000 1.0000
71.4800 11316.0000 1.0000
71.5000 11515.0000 1.0000
71.5200 11198.0000 1.0000
71.5400 11288.0000 1.0000
71.5600 11357.0000 1.0000
71.5800 11394.0000 1.0000
71.6000 11353.0000 1.0000
71.6200 11201.0000 1.0000
71.6400 11317.0000 1.0000
71.6600 11347.0000 1.0000
71.6800 11537.0000 1.0000
71.7000 11338.0000 1.0000
71.7200 11396.0000 1.0000
71.7400 11303.0000 1.0000
71.7600 11562.0000 1.0000
71.7800 11403.0000 1.0000
71.8000 11441.0000 1.0000
71.8200 11770.0000 1.0000
71.8400 11598.0000 1.0000
71.8600 11603.0000 1.0000
71.8800 12054.0000 1.0000
71.9000 12169.0000 1.0000
71.9200 12350.0000 1.0000
71.9400 12513.0000 1.0000
71.9600 12380.0000 1.0000
71.9800 12357.0000 1.0000
72.0000 11932.0000 1.0000
72.0200 11929.0000 1.0000
72.0400 11775.0000 1.0000
72.0600 11592.0000 1.0000
72.0800 11711.0000 1.0000
72.1000 11761.0000 1.0000
72.1200 11742.0000 1.0000
72.1400 11915.0000 1.0000
72.1600 11889.0000 1.0000
72.1800 11839.0000 1.0000
72.2000 11778.0000 1.0000
72.2200 11695.0000 1.0000
72.2400 11778.0000 1.0000
72.2600 11616.0000 1.0000
72.2800 11672.0000 1.0000
72.3000 11569.0000 1.0000
72.3200 11653.0000 1.0000
72.3400 11592.0000 1.0000
72.3600 11399.0000 1.0000
72.3800 11435.0000 1.0000
72.4000 11366.0000 1.0000
72.4200 11401.0000 1.0000
72.4400 11510.0000 1.0000
72.4600 11467.0000 1.0000
72.4800 11533.0000 1.0000
72.5000 11473.0000 1.0000
72.5200 11454.0000 1.0000
72.5400 11306.0000 1.0000
72.5600 11207.0000 1.0000
72.5800 11314.0000 1.0000
72.6000 11328.0000 1.0000
72.6200 11527.0000 1.0000
72.6400 11315.0000 1.0000
72.6600 10958.0000 1.0000
72.6800 11053.0000 1.0000
72.7000 11238.0000 1.0000
72.7200 11269.0000 1.0000
72.7400 11360.0000 1.0000
72.7600 11278.0000 1.0000
72.7800 11464.0000 1.0000
72.8000 11381.0000 1.0000
72.8200 11185.0000 1.0000
72.8400 11263.0000 1.0000
72.8600 11199.0000 1.0000
72.8800 11295.0000 1.0000
72.9000 11421.0000 1.0000
72.9200 11167.0000 1.0000
72.9400 11157.0000 1.0000
72.9600 11384.0000 1.0000
72.9800 11389.0000 1.0000
73.0000 11280.0000 1.0000
73.0200 11035.0000 1.0000
73.0400 11454.0000 1.0000
73.0600 11436.0000 1.0000
73.0800 11485.0000 1.0000
73.1000 11480.0000 1.0000
73.1200 11354.0000 1.0000
73.1400 11181.0000 1.0000
73.1600 11356.0000 1.0000
73.1800 11122.0000 1.0000
73.2000 11410.0000 1.0000
73.2200 11352.0000 1.0000
73.2400 11313.0000 1.0000
73.2600 11201.0000 1.0000
73.2800 11299.0000 1.0000
73.3000 11165.0000 1.0000
73.3200 11311.0000 1.0000
73.3400 11463.0000 1.0000
73.3600 11320.0000 1.0000
73.3800 11442.0000 1.0000
73.4000 11525.0000 1.0000
73.4200 11718.0000 1.0000
73.4400 11760.0000 1.0000
73.4600 12058.0000 1.0000
73.4800 11768.0000 1.0000
73.5000 11515.0000 1.0000
73.5200 11458.0000 1.0000
73.5400 11314.0000 1.0000
73.5600 11371.0000 1.0000
73.5800 11350.0000 1.0000
73.6000 11522.0000 1.0000
73.6200 11396.0000 1.0000
73.6400 11326.0000 1.0000
73.6600 11668.0000 1.0000
73.6800 11588.0000 1.0000
73.7000 11474.0000 1.0000
73.7200 11537.0000 1.0000
73.7400 11521.0000 1.0000
73.7600 11235.0000 1.0000
73.7800 11342.0000 1.0000
73.8000 11188.0000 1.0000
73.8200 11450.0000 1.0000
73.8400 11392.0000 1.0000
73.8600 11346.0000 1.0000
73.8800 11528.0000 1.0000
73.9000 11470.0000 1.0000
73.9200 11578.0000 1.0000
73.9400 11623.0000 1.0000
73.9600 11522.0000 1.0000
73.9800 11689.0000 1.0000
74.0000 11483.0000 1.0000
74.0200 11706.0000 1.0000
74.0400 11652.0000 1.0000
74.0600 12005.0000 1.0000
74.0800 11713.0000 1.0000
74.1000 11913.0000 1.0000
74.1200 11730.0000 1.0000
74.1400 11827.0000 1.0000
74.1600 11756.0000 1.0000
74.1800 11625.0000 1.0000
74.2000 11631.0000 1.0000
74.2200 11824.0000 1.0000
74.2400 11961.0000 1.0000
74.2600 11681.0000 1.0000
74.2800 11735.0000 1.0000
74.3000 11762.0000 1.0000
74.3200 11592.0000 1.0000
74.3400 11561.0000 1.0000
74.3600 11389.0000 1.0000
74.3800 11387.0000 1.0000
74.4000 11268.0000 1.0000
74.4200 11504.0000 1.0000
74.4400 11441.0000 1.0000
74.4600 11387.0000 1.0000
74.4800 11544.0000 1.0000
74.5000 11476.0000 1.0000
74.5200 11557.0000 1.0000
74.5400 11313.0000 1.0000
74.5600 11407.0000 1.0000
74.5800 11406.0000 1.0000
74.6000 11368.0000 1.0000
74.6200 11290.0000 1.0000
74.6400 11208.0000 1.0000
74.6600 11342.0000 1.0000
74.6800 11323.0000 1.0000
74.7000 11382.0000 1.0000
74.7200 11390.0000 1.0000
74.7400 11426.0000 1.0000
74.7600 11358.0000 1.0000
74.7800 11377.0000 1.0000
74.8000 11586.0000 1.0000
74.8200 11350.0000 1.0000
74.8400 11370.0000 1.0000
74.8600 11433.0000 1.0000
74.8800 11377.0000 1.0000
74.9000 11446.0000 1.0000
74.9200 11410.0000 1.0000
74.9400 11559.0000 1.0000
74.9600 11371.0000 1.0000
74.9800 11296.0000 1.0000
75.0000 11486.0000 1.0000
75.0200 11432.0000 1.0000
75.0400 11645.0000 1.0000
75.0600 11459.0000 1.0000
75.0800 11657.0000 1.0000
75.1000 11402.0000 1.0000
75.1200 11455.0000 1.0000
75.1400 11529.0000 1.0000
75.1600 11468.0000 1.0000
75.1800 11546.0000 1.0000
75.2000 11614.0000 1.0000
75.2200 11592.0000 1.0000
75.2400 11507.0000 1.0000
75.2600 11475.0000 1.0000
75.2800 11630.0000 1.0000
75.3000 11599.0000 1.0000
75.3200 11608.0000 1.0000
75.3400 11511.0000 1.0000
75.3600 11625.0000 1.0000
75.3800 11719.0000 1.0000
75.4000 11845.0000 1.0000
75.4200 12049.0000 1.0000
75.4400 11916.0000 1.0000
75.4600 12192.0000 1.0000
75.4800 11852.0000 1.0000
75.5000 11933.0000 1.0000
75.5200 11671.0000 1.0000
75.5400 11612.0000 1.0000
75.5600 11602.0000 1.0000
75.5800 11664.0000 1.0000
75.6000 11615.0000 1.0000
75.6200 11930.0000 1.0000
75.6400 12158.0000 1.0000
75.6600 12478.0000 1.0000
75.6800 12109.0000 1.0000
75.7000 11828.0000 1.0000
75.7200 11407.0000 1.0000
75.7400 11578.0000 1.0000
75.7600 11445.0000 1.0000
75.7800 11572.0000 1.0000
75.8000 11611.0000 1.0000
75.8200 11316.0000 1.0000
75.8400 11264.0000 1.0000
75.8600 11531.0000 1.0000
75.8800 11658.0000 1.0000
75.9000 11668.0000 1.0000
75.9200 11482.0000 1.0000
75.9400 11375.0000 1.0000
75.9600 11284.0000 1.0000
75.9800 11216.0000 1.0000
76.0000 11314.0000 1.0000
76.0200 11276.0000 1.0000
76.0400 11302.0000 1.0000
76.0600 11341.0000 1.0000
76.0800 11391.0000 1.0000
76.1000 11258.0000 1.0000
76.1200 11274.0000 1.0000
76.1400 11138.0000 1.0000
76.1600 11275.0000 1.0000
76.1800 11445.0000 1.0000
76.2000 11329.0000 1.0000
76.2200 11322.0000 1.0000
76.2400 11175.0000 1.0000
76.2600 11444.0000 1.0000
76.2800 11272.0000 1.0000
76.3000 11256.0000 1.0000
76.3200 11138.0000 1.0000
76.3400 11279.0000 1.0000
76.3600 11313.0000 1.0000
76.3800 11134.0000 1.0000
76.4000 11330.0000 1.0000
76.4200 11176.0000 1.0000
76.4400 11234.0000 1.0000
76.4600 11506.0000 1.0000
76.4800 11193.0000 1.0000
76.5000 11286.0000 1.0000
76.5200 11295.0000 1.0000
76.5400 11353.0000 1.0000
76.5600 11429.0000 1.0000
76.5800 11349.0000 1.0000
76.6000 11064.0000 1.0000
76.6200 11457.0000 1.0000
76.6400 11087.0000 1.0000
76.6600 11422.0000 1.0000
76.6800 11632.0000 1.0000
76.7000 11653.0000 1.0000
76.7200 11701.0000 1.0000
76.7400 11830.0000 1.0000
76.7600 11740.0000 1.0000
76.7800 11689.0000 1.0000
76.8000 11907.0000 1.0000
76.8200 11994.0000 1.0000
76.8400 12052.0000 1.0000
76.8600 12135.0000 1.0000
76.8800 12091.0000 1.0000
76.9000 12138.0000 1.0000
76.9200 12050.0000 1.0000
76.9400 11762.0000 1.0000
76.9600 11714.0000 1.0000
76.9800 11748.0000 1.0000
77.0000 11808.0000 1.0000
77.0200 11840.0000 1.0000
77.0400 11758.0000 1.0000
77.0600 11889.0000 1.0000
77.0800 11900.0000 1.0000
77.1000 11875.0000 1.0000
77.1200 11830.0000 1.0000
77.1400 11770.0000 1.0000
77.1600 11732.0000 1.0000
77.1800 11644.0000 1.0000
77.2000 11747.0000 1.0000
77.2200 11737.0000 1.0000
77.2400 11863.0000 1.0000
77.2600 12108.0000 1.0000
77.2800 11777.0000 1.0000
77.3000 11518.0000 1.0000
77.3200 11497.0000 1.0000
77.3400 11349.0000 1.0000
77.3600 11439.0000 1.0000
77.3800 11446.0000 1.0000
77.4000 11493.0000 1.0000
77.4200 11484.0000 1.0000
77.4400 11389.0000 1.0000
77.4600 11621.0000 1.0000
77.4800 11474.0000 1.0000
77.5000 11636.0000 1.0000
77.5200 11308.0000 1.0000
77.5400 11278.0000 1.0000
77.5600 11306.0000 1.0000
77.5800 11289.0000 1.0000
77.6000 11343.0000 1.0000
77.6200 11389.0000 1.0000
77.6400 11555.0000 1.0000
77.6600 11370.0000 1.0000
77.6800 11672.0000 1.0000
77.7000 11527.0000 1.0000
77.7200 11586.0000 1.0000
77.7400 11695.0000 1.0000
77.7600 11678.0000 1.0000
77.7800 11411.0000 1.0000
77.8000 11346.0000 1.0000
77.8200 11201.0000 1.0000
77.8400 11344.0000 1.0000
77.8600 11429.0000 1.0000
77.8800 11318.0000 1.0000
77.9000 11524.0000 1.0000
77.9200 11243.0000 1.0000
77.9400 11451.0000 1.0000
77.9600 11573.0000 1.0000
77.9800 11430.0000 1.0000
78.0000 11388.0000 1.0000
78.0200 11540.0000 1.0000
78.0400 11327.0000 1.0000
78.0600 11254.0000 1.0000
78.0800 11323.0000 1.0000
78.1000 11313.0000 1.0000
78.1200 11390.0000 1.0000
78.1400 11201.0000 1.0000
78.1600 11314.0000 1.0000
78.1800 11318.0000 1.0000
78.2000 11113.0000 1.0000
78.2200 11202.0000 1.0000
78.2400 11324.0000 1.0000
78.2600 11107.0000 1.0000
78.2800 11201.0000 1.0000
78.3000 11429.0000 1.0000
78.3200 11395.0000 1.0000
78.3400 11311.0000 1.0000
78.3600 11431.0000 1.0000
78.3800 11209.0000 1.0000
78.4000 11413.0000 1.0000
78.4200 11390.0000 1.0000
78.4400 11256.0000 1.0000
78.4600 11130.0000 1.0000
78.4800 11053.0000 1.0000
78.5000 11325.0000 1.0000
78.5200 11338.0000 1.0000
78.5400 11355.0000 1.0000
78.5600 11275.0000 1.0000
78.5800 11210.0000 1.0000
78.6000 11332.0000 1.0000
78.6200 11338.0000 1.0000
78.6400 11212.0000 1.0000
78.6600 11274.0000 1.0000
78.6800 11237.0000 1.0000
78.7000 11316.0000 1.0000
78.7200 11280.0000 1.0000
78.7400 11354.0000 1.0000
78.7600 11413.0000 1.0000
78.7800 11188.0000 1.0000
78.8000 11309.0000 1.0000
78.8200 11236.0000 1.0000
78.8400 11416.0000 1.0000
78.8600 11199.0000 1.0000
78.8800 11473.0000 1.0000
78.9000 11330.0000 1.0000
78.9200 11400.0000 1.0000
78.9400 11396.0000 1.0000
78.9600 11275.0000 1.0000
78.9800 11306.0000 1.0000
79.0000 11413.0000 1.0000
79.0200 11401.0000 1.0000
79.0400 11451.0000 1.0000
79.0600 11558.0000 1.0000
79.0800 11281.0000 1.0000
79.1000 11362.0000 1.0000
79.1200 11417.0000 1.0000
79.1400 11326.0000 1.0000
79.1600 11194.0000 1.0000
79.1800 11325.0000 1.0000
79.2000 11484.0000 1.0000
79.2200 11210.0000 1.0000
79.2400 11280.0000 1.0000
79.2600 11467.0000 1.0000
79.2800 11357.0000 1.0000
79.3000 11308.0000 1.0000
79.3200 11349.0000 1.0000
79.3400 11354.0000 1.0000
79.3600 11367.0000 1.0000
79.3800 11270.0000 1.0000
79.4000 11281.0000 1.0000
79.4200 11382.0000 1.0000
79.4400 11488.0000 1.0000
79.4600 11345.0000 1.0000
79.4800 11435.0000 1.0000
79.5000 11479.0000 1.0000
79.5200 11266.0000 1.0000
79.5400 11179.0000 1.0000
79.5600 11365.0000 1.0000
79.5800 11061.0000 1.0000
79.6000 11276.0000 1.0000
79.6200 11269.0000 1.0000
79.6400 11326.0000 1.0000
79.6600 11310.0000 1.0000
79.6800 11255.0000 1.0000
79.7000 11356.0000 1.0000
79.7200 11238.0000 1.0000
79.7400 11349.0000 1.0000
79.7600 11397.0000 1.0000
79.7800 11403.0000 1.0000
79.8000 11277.0000 1.0000
79.8200 11595.0000 1.0000
79.8400 11465.0000 1.0000
79.8600 11657.0000 1.0000
79.8800 11806.0000 1.0000
79.9000 11450.0000 1.0000
79.9200 11556.0000 1.0000
79.9400 11358.0000 1.0000
79.9600 11307.0000 1.0000
79.9800 11457.0000 1.0000
80.0000 11450.0000 1.0000
80.0200 11292.0000 1.0000
80.0400 11295.0000 1.0000
80.0600 11409.0000 1.0000
80.0800 11306.0000 1.0000
80.1000 11591.0000 1.0000
80.1200 11741.0000 1.0000
80.1400 11654.0000 1.0000
80.1600 11287.0000 1.0000
80.1800 11303.0000 1.0000
80.2000 11121.0000 1.0000
80.2200 11152.0000 1.0000
80.2400 11428.0000 1.0000
80.2600 11361.0000 1.0000
80.2800 11202.0000 1.0000
80.3000 11274.0000 1.0000
80.3200 11140.0000 1.0000
80.3400 11157.0000 1.0000
80.3600 11490.0000 1.0000
80.3800 11540.0000 1.0000
80.4000 11331.0000 1.0000
80.4200 11420.0000 1.0000
80.4400 11376.0000 1.0000
80.4600 11439.0000 1.0000
80.4800 11431.0000 1.0000
80.5000 11337.0000 1.0000
80.5200 11376.0000 1.0000
80.5400 11552.0000 1.0000
80.5600 11562.0000 1.0000
80.5800 11762.0000 1.0000
80.6000 11750.0000 1.0000
80.6200 11736.0000 1.0000
80.6400 11780.0000 1.0000
80.6600 11895.0000 1.0000
80.6800 11948.0000 1.0000
80.7000 11932.0000 1.0000
80.7200 11891.0000 1.0000
80.7400 11982.0000 1.0000
80.7600 11670.0000 1.0000
80.7800 11740.0000 1.0000
80.8000 11772.0000 1.0000
80.8200 11793.0000 1.0000
80.8400 11467.0000 1.0000
80.8600 11432.0000 1.0000
80.8800 11828.0000 1.0000
80.9000 11772.0000 1.0000
80.9200 11704.0000 1.0000
80.9400 11719.0000 1.0000
80.9600 11842.0000 1.0000
80.9800 11567.0000 1.0000
81.0000 11610.0000 1.0000
81.0200 11475.0000 1.0000
81.0400 11289.0000 1.0000
81.0600 11606.0000 1.0000
81.0800 11519.0000 1.0000
81.1000 11432.0000 1.0000
81.1200 11427.0000 1.0000
81.1400 11475.0000 1.0000
81.1600 11381.0000 1.0000
81.1800 11524.0000 1.0000
81.2000 11429.0000 1.0000
81.2200 11253.0000 1.0000
81.2400 11191.0000 1.0000
81.2600 11229.0000 1.0000
81.2800 11305.0000 1.0000
81.3000 11259.0000 1.0000
81.3200 11365.0000 1.0000
81.3400 11315.0000 1.0000
81.3600 11397.0000 1.0000
81.3800 11239.0000 1.0000
81.4000 11424.0000 1.0000
81.4200 11310.0000 1.0000
81.4400 11500.0000 1.0000
81.4600 11445.0000 1.0000
81.4800 11278.0000 1.0000
81.5000 11300.0000 1.0000
81.5200 11174.0000 1.0000
81.5400 11418.0000 1.0000
81.5600 11331.0000 1.0000
81.5800 11228.0000 1.0000
81.6000 11181.0000 1.0000
81.6200 11250.0000 1.0000
81.6400 11420.0000 1.0000
81.6600 11262.0000 1.0000
81.6800 11147.0000 1.0000
81.7000 11270.0000 1.0000
81.7200 11374.0000 1.0000
81.7400 11259.0000 1.0000
81.7600 11285.0000 1.0000
81.7800 11348.0000 1.0000
81.8000 11161.0000 1.0000
81.8200 11261.0000 1.0000
81.8400 11158.0000 1.0000
81.8600 11385.0000 1.0000
81.8800 11249.0000 1.0000
81.9000 11379.0000 1.0000
81.9200 11055.0000 1.0000
81.9400 11197.0000 1.0000
81.9600 11273.0000 1.0000
81.9800 11300.0000 1.0000
82.0000 11326.0000 1.0000
82.0200 11260.0000 1.0000
82.0400 11102.0000 1.0000
82.0600 11259.0000 1.0000
82.0800 11319.0000 1.0000
82.1000 11222.0000 1.0000
82.1200 11333.0000 1.0000
82.1400 11071.0000 1.0000
82.1600 11221.0000 1.0000
82.1800 11278.0000 1.0000
82.2000 11282.0000 1.0000
82.2200 11151.0000 1.0000
82.2400 11182.0000 1.0000
82.2600 11272.0000 1.0000
82.2800 11120.0000 1.0000
82.3000 11285.0000 1.0000
82.3200 11320.0000 1.0000
82.3400 11247.0000 1.0000
82.3600 11237.0000 1.0000
82.3800 11144.0000 1.0000
82.4000 11263.0000 1.0000
82.4200 11297.0000 1.0000
82.4400 11175.0000 1.0000
82.4600 11041.0000 1.0000
82.4800 11149.0000 1.0000
82.5000 11283.0000 1.0000
82.5200 11394.0000 1.0000
82.5400 11214.0000 1.0000
82.5600 11098.0000 1.0000
82.5800 11423.0000 1.0000
82.6000 11195.0000 1.0000
82.6200 11222.0000 1.0000
82.6400 11294.0000 1.0000
82.6600 11311.0000 1.0000
82.6800 11211.0000 1.0000
82.7000 11221.0000 1.0000
82.7200 11310.0000 1.0000
82.7400 11216.0000 1.0000
82.7600 11284.0000 1.0000
82.7800 11314.0000 1.0000
82.8000 11384.0000 1.0000
82.8200 11365.0000 1.0000
82.8400 11331.0000 1.0000
82.8600 11622.0000 1.0000
82.8800 11512.0000 1.0000
82.9000 11555.0000 1.0000
82.9200 11622.0000 1.0000
82.9400 11956.0000 1.0000
82.9600 11747.0000 1.0000
82.9800 11581.0000 1.0000
83.0000 11600.0000 1.0000
83.0200 11513.0000 1.0000
83.0400 11439.0000 1.0000
83.0600 11446.0000 1.0000
83.0800 11563.0000 1.0000
83.1000 11446.0000 1.0000
83.1200 11394.0000 1.0000
83.1400 11558.0000 1.0000
83.1600 11446.0000 1.0000
83.1800 11542.0000 1.0000
83.2000 11493.0000 1.0000
83.2200 11483.0000 1.0000
83.2400 11501.0000 1.0000
83.2600 11470.0000 1.0000
83.2800 11440.0000 1.0000
83.3000 11286.0000 1.0000
83.3200 11310.0000 1.0000
83.3400 11477.0000 1.0000
83.3600 11386.0000 1.0000
83.3800 11327.0000 1.0000
83.4000 11351.0000 1.0000
83.4200 11336.0000 1.0000
83.4400 11319.0000 1.0000
83.4600 11397.0000 1.0000
83.4800 11400.0000 1.0000
83.5000 11483.0000 1.0000
83.5200 11422.0000 1.0000
83.5400 11289.0000 1.0000
83.5600 11336.0000 1.0000
83.5800 11332.0000 1.0000
83.6000 10983.0000 1.0000
83.6200 11318.0000 1.0000
83.6400 11314.0000 1.0000
83.6600 11223.0000 1.0000
83.6800 11330.0000 1.0000
83.7000 10987.0000 1.0000
83.7200 11474.0000 1.0000
83.7400 11408.0000 1.0000
83.7600 11431.0000 1.0000
83.7800 11218.0000 1.0000
83.8000 11502.0000 1.0000
83.8200 11343.0000 1.0000
83.8400 11309.0000 1.0000
83.8600 11411.0000 1.0000
83.8800 11310.0000 1.0000
83.9000 11237.0000 1.0000
83.9200 11313.0000 1.0000
83.9400 11315.0000 1.0000
83.9600 11272.0000 1.0000
83.9800 11380.0000 1.0000
84.0000 11277.0000 1.0000
84.0200 11295.0000 1.0000
84.0400 11303.0000 1.0000
84.0600 11328.0000 1.0000
84.0800 11351.0000 1.0000
84.1000 11297.0000 1.0000
84.1200 11230.0000 1.0000
84.1400 11226.0000 1.0000
84.1600 11289.0000 1.0000
84.1800 11351.0000 1.0000
84.2000 11381.0000 1.0000
84.2200 11326.0000 1.0000
84.2400 11519.0000 1.0000
84.2600 11408.0000 1.0000
84.2800 11292.0000 1.0000
84.3000 11328.0000 1.0000
84.3200 11434.0000 1.0000
84.3400 11445.0000 1.0000
84.3600 11525.0000 1.0000
84.3800 11322.0000 1.0000
84.4000 11436.0000 1.0000
84.4200 11482.0000 1.0000
84.4400 11275.0000 1.0000
84.4600 11380.0000 1.0000
84.4800 11440.0000 1.0000
84.5000 11260.0000 1.0000
84.5200 11401.0000 1.0000
84.5400 11464.0000 1.0000
84.5600 11452.0000 1.0000
84.5800 11446.0000 1.0000
84.6000 11370.0000 1.0000
84.6200 11384.0000 1.0000
84.6400 11484.0000 1.0000
84.6600 11123.0000 1.0000
84.6800 11270.0000 1.0000
84.7000 11394.0000 1.0000
84.7200 11487.0000 1.0000
84.7400 11505.0000 1.0000
84.7600 11394.0000 1.0000
84.7800 11537.0000 1.0000
84.8000 11670.0000 1.0000
84.8200 11595.0000 1.0000
84.8400 11629.0000 1.0000
84.8600 11839.0000 1.0000
84.8800 11709.0000 1.0000
84.9000 12071.0000 1.0000
84.9200 11959.0000 1.0000
84.9400 12249.0000 1.0000
84.9600 12086.0000 1.0000
84.9800 11780.0000 1.0000
85.0000 11589.0000 1.0000
85.0200 11532.0000 1.0000
85.0400 11563.0000 1.0000
85.0600 11496.0000 1.0000
85.0800 11569.0000 1.0000
85.1000 11329.0000 1.0000
85.1200 11568.0000 1.0000
85.1400 11628.0000 1.0000
85.1600 11598.0000 1.0000
85.1800 11565.0000 1.0000
85.2000 11862.0000 1.0000
85.2200 11674.0000 1.0000
85.2400 11454.0000 1.0000
85.2600 11604.0000 1.0000
85.2800 11286.0000 1.0000
85.3000 11334.0000 1.0000
85.3200 11453.0000 1.0000
85.3400 11378.0000 1.0000
85.3600 11015.0000 1.0000
85.3800 11195.0000 1.0000
85.4000 11286.0000 1.0000
85.4200 11312.0000 1.0000
85.4400 11003.0000 1.0000
85.4600 11220.0000 1.0000
85.4800 11239.0000 1.0000
85.5000 11287.0000 1.0000
85.5200 11222.0000 1.0000
85.5400 11296.0000 1.0000
85.5600 11280.0000 1.0000
85.5800 11264.0000 1.0000
85.6000 11298.0000 1.0000
85.6200 11206.0000 1.0000
85.6400 11262.0000 1.0000
85.6600 11249.0000 1.0000
85.6800 11140.0000 1.0000
85.7000 11234.0000 1.0000
85.7200 11207.0000 1.0000
85.7400 11368.0000 1.0000
85.7600 11155.0000 1.0000
85.7800 11142.0000 1.0000
85.8000 11303.0000 1.0000
85.8200 11314.0000 1.0000
85.8400 11313.0000 1.0000
85.8600 11194.0000 1.0000
85.8800 11369.0000 1.0000
85.9000 11103.0000 1.0000
85.9200 11295.0000 1.0000
85.9400 11303.0000 1.0000
85.9600 11166.0000 1.0000
85.9800 11200.0000 1.0000
86.0000 11133.0000 1.0000
86.0200 11300.0000 1.0000
86.0400 11265.0000 1.0000
86.0600 11402.0000 1.0000
86.0800 11221.0000 1.0000
86.1000 11374.0000 1.0000
86.1200 11127.0000 1.0000
86.1400 11164.0000 1.0000
86.1600 11174.0000 1.0000
86.1800 11465.0000 1.0000
86.2000 11475.0000 1.0000
86.2200 11097.0000 1.0000
86.2400 11378.0000 1.0000
86.2600 11300.0000 1.0000
86.2800 11430.0000 1.0000
86.3000 11489.0000 1.0000
86.3200 11491.0000 1.0000
86.3400 11462.0000 1.0000
86.3600 11469.0000 1.0000
86.3800 11363.0000 1.0000
86.4000 11406.0000 1.0000
86.4200 11305.0000 1.0000
86.4400 11513.0000 1.0000
86.4600 11292.0000 1.0000
86.4800 11445.0000 1.0000
86.5000 11356.0000 1.0000
86.5200 11354.0000 1.0000
86.5400 11524.0000 1.0000
86.5600 11345.0000 1.0000
86.5800 11430.0000 1.0000
86.6000 11433.0000 1.0000
86.6200 11465.0000 1.0000
86.6400 11363.0000 1.0000
86.6600 11347.0000 1.0000
86.6800 11434.0000 1.0000
86.7000 11405.0000 1.0000
86.7200 11167.0000 1.0000
86.7400 11537.0000 1.0000
86.7600 11381.0000 1.0000
86.7800 11597.0000 1.0000
86.8000 11476.0000 1.0000
86.8200 11461.0000 1.0000
86.8400 11547.0000 1.0000
86.8600 11564.0000 1.0000
86.8800 11543.0000 1.0000
86.9000 11515.0000 1.0000
86.9200 11456.0000 1.0000
86.9400 11294.0000 1.0000
86.9600 11487.0000 1.0000
86.9800 11351.0000 1.0000
87.0000 11401.0000 1.0000
87.0200 11249.0000 1.0000
87.0400 11447.0000 1.0000
87.0600 11334.0000 1.0000
87.0800 11292.0000 1.0000
87.1000 11480.0000 1.0000
87.1200 11579.0000 1.0000
87.1400 11487.0000 1.0000
87.1600 11400.0000 1.0000
87.1800 11434.0000 1.0000
87.2000 11439.0000 1.0000
87.2200 11255.0000 1.0000
87.2400 11167.0000 1.0000
87.2600 11193.0000 1.0000
87.2800 11268.0000 1.0000
87.3000 11312.0000 1.0000
87.3200 11104.0000 1.0000
87.3400 11105.0000 1.0000
87.3600 11196.0000 1.0000
87.3800 11275.0000 1.0000
87.4000 11087.0000 1.0000
87.4200 11190.0000 1.0000
87.4400 11314.0000 1.0000
87.4600 11190.0000 1.0000
87.4800 11213.0000 1.0000
87.5000 11398.0000 1.0000
87.5200 11074.0000 1.0000
87.5400 11237.0000 1.0000
87.5600 11294.0000 1.0000
87.5800 11240.0000 1.0000
87.6000 11074.0000 1.0000
87.6200 11142.0000 1.0000
87.6400 11225.0000 1.0000
87.6600 11259.0000 1.0000
87.6800 11380.0000 1.0000
87.7000 11316.0000 1.0000
87.7200 11406.0000 1.0000
87.7400 11251.0000 1.0000
87.7600 11297.0000 1.0000
87.7800 11224.0000 1.0000
87.8000 11032.0000 1.0000
87.8200 11304.0000 1.0000
87.8400 11192.0000 1.0000
87.8600 11038.0000 1.0000
87.8800 11193.0000 1.0000
87.9000 11290.0000 1.0000
87.9200 11099.0000 1.0000
87.9400 11186.0000 1.0000
87.9600 11262.0000 1.0000
87.9800 11272.0000 1.0000
88.0000 11150.0000 1.0000
88.0200 11257.0000 1.0000
88.0400 11356.0000 1.0000
88.0600 11248.0000 1.0000
88.0800 11143.0000 1.0000
88.1000 11127.0000 1.0000
88.1200 11124.0000 1.0000
88.1400 11381.0000 1.0000
88.1600 11180.0000 1.0000
88.1800 11219.0000 1.0000
88.2000 11310.0000 1.0000
88.2200 11322.0000 1.0000
88.2400 11304.0000 1.0000
88.2600 11309.0000 1.0000
88.2800 11377.0000 1.0000
88.3000 11280.0000 1.0000
88.3200 11300.0000 1.0000
88.3400 11197.0000 1.0000
88.3600 11363.0000 1.0000
88.3800 11614.0000 1.0000
88.4000 11397.0000 1.0000
88.4200 11576.0000 1.0000
88.4400 11527.0000 1.0000
88.4600 11516.0000 1.0000
88.4800 11669.0000 1.0000
88.5000 11752.0000 1.0000
88.5200 11955.0000 1.0000
88.5400 12029.0000 1.0000
88.5600 12020.0000 1.0000
88.5800 11947.0000 1.0000
88.6000 11711.0000 1.0000
88.6200 11737.0000 1.0000
88.6400 11489.0000 1.0000
88.6600 11466.0000 1.0000
88.6800 11537.0000 1.0000
88.7000 11574.0000 1.0000
88.7200 11550.0000 1.0000
88.7400 11672.0000 1.0000
88.7600 11666.0000 1.0000
88.7800 11642.0000 1.0000
88.8000 11635.0000 1.0000
88.8200 11598.0000 1.0000
88.8400 11649.0000 1.0000
88.8600 11668.0000 1.0000
88.8800 11709.0000 1.0000
88.9000 11582.0000 1.0000
88.9200 11646.0000 1.0000
88.9400 11453.0000 1.0000
88.9600 11542.0000 1.0000
88.9800 11664.0000 1.0000
89.0000 11713.0000 1.0000
89.0200 11467.0000 1.0000
89.0400 11593.0000 1.0000
89.0600 11468.0000 1.0000
89.0800 11439.0000 1.0000
89.1000 11288.0000 1.0000
89.1200 11344.0000 1.0000
89.1400 11431.0000 1.0000
89.1600 11411.0000 1.0000
89.1800 11536.0000 1.0000
89.2000 11234.0000 1.0000
89.2200 11427.0000 1.0000
89.2400 11341.0000 1.0000
89.2600 11443.0000 1.0000
89.2800 11436.0000 1.0000
89.3000 11482.0000 1.0000
89.3200 11377.0000 1.0000
89.3400 11258.0000 1.0000
89.3600 11386.0000 1.0000
89.3800 11314.0000 1.0000
89.4000 11527.0000 1.0000
89.4200 11219.0000 1.0000
89.4400 11103.0000 1.0000
89.4600 11353.0000 1.0000
89.4800 11447.0000 1.0000
89.5000 11402.0000 1.0000
89.5200 11262.0000 1.0000
89.5400 11456.0000 1.0000
89.5600 11397.0000 1.0000
89.5800 11244.0000 1.0000
89.6000 11483.0000 1.0000
89.6200 11446.0000 1.0000
89.6400 11550.0000 1.0000
89.6600 11713.0000 1.0000
89.6800 11781.0000 1.0000
89.7000 11774.0000 1.0000
89.7200 11901.0000 1.0000
89.7400 12132.0000 1.0000
89.7600 12139.0000 1.0000
89.7800 12087.0000 1.0000
89.8000 12001.0000 1.0000
89.8200 11770.0000 1.0000
89.8400 11763.0000 1.0000
89.8600 11704.0000 1.0000
89.8800 11768.0000 1.0000
89.9000 11631.0000 1.0000
89.9200 11666.0000 1.0000
89.9400 11913.0000 1.0000
89.9600 11787.0000 1.0000
89.9800 11942.0000 1.0000
90.0000 11667.0000 1.0000
*RAS_INT_END
*RAS_TEMPERATURE_START
*RAS_TEMPERATURE_END
*RAS_DATA_END
