*RAS_DATA_START
*RAS_HEADER_START
*DISP_FMT_X "%.2f"
*DISP_FMT_Y "%.0f"
*DISP_FULLSCALE "29324.0000000000"
*DISP_LINE_COLOR "255.0000000000"
*DISP_LINE_STYLE "0.0000000000"
*DISP_LINE_WIDTH "0.2500000000"
*DISP_NOTE "測定データ-2"
*DISP_OFFSET_Y "0.0000000000"
*DISP_PEAKSEARCH_UNIT_Y "cps"
*DISP_RANGE_BOTTOM "0.0000000000"
*DISP_RANGE_LEFT "20.0000000000"
*DISP_RANGE_LOGCUTOFF "0.0100000000"
*DISP_RANGE_RIGHT "90.0000000000"
*DISP_RANGE_TOP "29324.0000000000"
*DISP_SCALE_MODE_Y "0.0000000000"
*DISP_TAB_NAME "2θ/θ"
*DISP_TITLE_Y "強度"
*DISP_UNIT_Y "cps"
*DISP_WINDOW_NAME "MSG_MACROENGINE"
*FILE_COMMENT " "
*FILE_MD5 ""
*FILE_MEMO " "
*FILE_OPERATOR "Administrator"
*FILE_SAMPLE " "
*FILE_TYPE "RAS_RAW"
*FILE_USERGROUP "システムマネージャ"
*FILE_VERSION "1.0000000000"
*HW_ATTACHMENT_ID "ATT0025"
*HW_ATTACHMENT_NAME "標準|Standard"
*HW_COUNTER_ID-0 "CUT0025"
*HW_COUNTER_ID-1 "CUT0020"
*HW_COUNTER_ID-2 "CUT0020"
*HW_COUNTER_ID-3 "CSL0021"
*HW_COUNTER_ID-4 "CMC0021"
*HW_COUNTER_NAME-0 "D/teX Ultra|D/teX Ultra"
*HW_COUNTER_NAME-1 "None|None"
*HW_COUNTER_NAME-2 "None|None"
*HW_COUNTER_NAME-3 "BBM|BBM"
*HW_COUNTER_NAME-4 "検出器モノクロメータ|Detector monochromator"
*HW_COUNTER_SELECT_NAME "D/teX Ultra|D/teX Ultra"
*HW_GONIOMETER_ID "GON0023"
*HW_GONIOMETER_NAME "SmartLab|SmartLab"
*HW_GONIOMETER_RADIUS-0 "90.0"
*HW_GONIOMETER_RADIUS-1 "114.0"
*HW_GONIOMETER_RADIUS-2 "190.0"
*HW_GONIOMETER_RADIUS-3 "300.0"
*HW_GONIOMETER_RADIUS-4 "187.0"
*HW_GONIOMETER_RADIUS-5 "300.0"
*HW_GONIOMETER_RADIUS-6 "113.0"
*HW_GONIOMETER_RADIUS-7 "331.0"
*HW_I_OPT_ID-0 "CBO0021"
*HW_I_OPT_ID-1 "ICR0023"
*HW_I_OPT_ID-2 "ISL0021"
*HW_I_OPT_ID-3 "ISO0021"
*HW_I_OPT_ID-4 "IAD0021"
*HW_I_OPT_ID-5 "IPR0001"
*HW_I_OPT_NAME-0 "CBOユニット|CBO unit"
*HW_I_OPT_NAME-1 "標準入射光学ユニット|Standard incident optical unit"
*HW_I_OPT_NAME-2 "標準入射スリットボックス|Standard incident slit box"
*HW_I_OPT_NAME-3 "入射平行スリット|Incident parallel slit"
*HW_I_OPT_NAME-4 "長手制限スリット|Length limiting slit"
*HW_I_OPT_NAME-5 "None|None"
*HW_R_ATTENUATER_AUTOMODE "0"
*HW_R_OPT_ID-0 "RSS0021"
*HW_R_OPT_ID-1 "RCR0023"
*HW_R_OPT_ID-2 "RSO0021"
*HW_R_OPT_ID-3 "RRS0021"
*HW_R_OPT_ID-4 "ATN0021"
*HW_R_OPT_ID-5 "RFL0021"
*HW_R_OPT_ID-6 "RAD0021"
*HW_R_OPT_NAME-0 "標準受光スリットボックス1|Standard receiving slit box # 1"
*HW_R_OPT_NAME-1 "標準受光光学ユニット1|Standard receiving unit # 1"
*HW_R_OPT_NAME-2 "標準受光光学ユニット2|Standard receiving optical unit # 2"
*HW_R_OPT_NAME-3 "標準受光スリットボックス2|Standard receiving slit box # 2"
*HW_R_OPT_NAME-4 "標準アッテネータ|Standard Attenuator"
*HW_R_OPT_NAME-5 "Cu Kβ|Cu K-beta"
*HW_R_OPT_NAME-6 "調整用受光スリット|Alignment receiving slit"
*HW_SAMPLE_HOLDER_ID "SMP0023"
*HW_SAMPLE_HOLDER_NAME "標準Zステージ|Standard Z stage"
*HW_XG_CURRENT_MAX "50"
*HW_XG_CURRENT_MIN "2"
*HW_XG_CURRENT_RESOLUTION "2"
*HW_XG_CURRENT_UNIT "mA"
*HW_XG_FOCUS "1mm x 10mm"
*HW_XG_FOCUS_TYPE "Normal"
*HW_XG_ID ""
*HW_XG_NAME "3kW 封入管(ID:1200)|3kW Sealed tube(ID:1200)"
*HW_XG_TARGET_ATOMIC_NUMBER "29.0000000000"
*HW_XG_TARGET_NAME "Cu"
*HW_XG_TYPE "Hermetic"
*HW_XG_VOLTAGE_MAX "60"
*HW_XG_VOLTAGE_MIN "20"
*HW_XG_VOLTAGE_RESOLUTION "2"
*HW_XG_VOLTAGE_UNIT "kV"
*HW_XG_WATT_MAX "2"
*HW_XG_WATT_UNIT "kW"
*HW_XG_WAVE_LENGTH_ALPHA1 "1.540593"
*HW_XG_WAVE_LENGTH_ALPHA2 "1.544414"
*HW_XG_WAVE_LENGTH_BETA "1.392250"
*MEAS_COND_AXIS_NAME-0 "2θ/θ"
*MEAS_COND_AXIS_NAME-1 "2θ"
*MEAS_COND_AXIS_NAME-2 "ω"
*MEAS_COND_AXIS_NAME-3 "Z"
*MEAS_COND_AXIS_NAME-4 "2θ/ω"
*MEAS_COND_AXIS_NAME-5 "θs"
*MEAS_COND_AXIS_NAME-6 "θd"
*MEAS_COND_AXIS_NAME-7 "Ts"
*MEAS_COND_AXIS_NAME-8 "CBO選択スリット"
*MEAS_COND_AXIS_NAME-9 "M"
*MEAS_COND_AXIS_NAME-10 "入射平行スリット"
*MEAS_COND_AXIS_NAME-11 "入射スリット"
*MEAS_COND_AXIS_NAME-12 ""
*MEAS_COND_AXIS_NAME-13 "Zs"
*MEAS_COND_AXIS_NAME-14 "入射光学素子"
*MEAS_COND_AXIS_NAME-15 "長手制限スリット"
*MEAS_COND_AXIS_NAME-16 "センタースリット"
*MEAS_COND_AXIS_NAME-17 "フィルター"
*MEAS_COND_AXIS_NAME-18 "受光スリット1"
*MEAS_COND_AXIS_NAME-19 "受光スリット2"
*MEAS_COND_AXIS_NAME-20 "受光光学素子"
*MEAS_COND_AXIS_NAME-21 "受光平行スリット"
*MEAS_COND_AXIS_NAME-22 "調整用受光スリット"
*MEAS_COND_AXIS_NAME-23 ""
*MEAS_COND_AXIS_NAME-24 ""
*MEAS_COND_AXIS_NAME-25 "Zd"
*MEAS_COND_AXIS_NAME-26 "アッテネータ"
*MEAS_COND_AXIS_NAME-27 "検出器モノクロメータ"
*MEAS_COND_AXIS_NAME-28 "モノクロメータスリット"
*MEAS_COND_AXIS_NAME-29 "プライマリビーム"
*MEAS_COND_AXIS_NAME-30 "PHA"
*MEAS_COND_AXIS_NAME_INTERNAL-0 "TwoThetaTheta"
*MEAS_COND_AXIS_NAME_INTERNAL-1 "TwoTheta"
*MEAS_COND_AXIS_NAME_INTERNAL-2 "Omega"
*MEAS_COND_AXIS_NAME_INTERNAL-3 "Z"
*MEAS_COND_AXIS_NAME_INTERNAL-4 "TwoThetaOmega"
*MEAS_COND_AXIS_NAME_INTERNAL-5 "ThetaS"
*MEAS_COND_AXIS_NAME_INTERNAL-6 "ThetaD"
*MEAS_COND_AXIS_NAME_INTERNAL-7 "Ts"
*MEAS_COND_AXIS_NAME_INTERNAL-8 "CBO"
*MEAS_COND_AXIS_NAME_INTERNAL-9 "CBO-M"
*MEAS_COND_AXIS_NAME_INTERNAL-10 "IncidentSollerSlit"
*MEAS_COND_AXIS_NAME_INTERNAL-11 "IncidentSlitBox"
*MEAS_COND_AXIS_NAME_INTERNAL-12 "IncidentSlitBox-_Axis"
*MEAS_COND_AXIS_NAME_INTERNAL-13 "Zs"
*MEAS_COND_AXIS_NAME_INTERNAL-14 "IncidentMonochromator"
*MEAS_COND_AXIS_NAME_INTERNAL-15 "IncidentAxdSlit"
*MEAS_COND_AXIS_NAME_INTERNAL-16 "CenterSlit"
*MEAS_COND_AXIS_NAME_INTERNAL-17 "Filter"
*MEAS_COND_AXIS_NAME_INTERNAL-18 "ReceivingSlitBox1"
*MEAS_COND_AXIS_NAME_INTERNAL-19 "ReceivingSlitBox2"
*MEAS_COND_AXIS_NAME_INTERNAL-20 "ReceivingOptics"
*MEAS_COND_AXIS_NAME_INTERNAL-21 "ReceivingSollerSlit"
*MEAS_COND_AXIS_NAME_INTERNAL-22 "ReceivingAxdSlit"
*MEAS_COND_AXIS_NAME_INTERNAL-23 "ReceivingSlitBox1-_Axis"
*MEAS_COND_AXIS_NAME_INTERNAL-24 "ReceivingSlitBox2-_Axis"
*MEAS_COND_AXIS_NAME_INTERNAL-25 "ReceivingSlitBox2-Zd"
*MEAS_COND_AXIS_NAME_INTERNAL-26 "Attenuator"
*MEAS_COND_AXIS_NAME_INTERNAL-27 "CounterMonochromator"
*MEAS_COND_AXIS_NAME_INTERNAL-28 "CounterSlit"
*MEAS_COND_AXIS_NAME_INTERNAL-29 "IncidentPrimary"
*MEAS_COND_AXIS_NAME_INTERNAL-30 "PHA"
*MEAS_COND_AXIS_NAME_MAGICNO-0 "83951616.0000000000"
*MEAS_COND_AXIS_NAME_MAGICNO-1 "268632064.0000000000"
*MEAS_COND_AXIS_NAME_MAGICNO-2 "268500992.0000000000"
*MEAS_COND_AXIS_NAME_MAGICNO-3 "285278208.0000000000"
*MEAS_COND_AXIS_NAME_MAGICNO-4 "83951616.0000000000"
*MEAS_COND_AXIS_NAME_MAGICNO-5 "131072.0000000000"
*MEAS_COND_AXIS_NAME_MAGICNO-6 "131072.0000000000"
*MEAS_COND_AXIS_NAME_MAGICNO-7 "318898176.0000000000"
*MEAS_COND_AXIS_NAME_MAGICNO-8 "20971521.0000000000"
*MEAS_COND_AXIS_NAME_MAGICNO-9 "285343744.0000000000"
*MEAS_COND_AXIS_NAME_MAGICNO-10 "20971521.0000000000"
*MEAS_COND_AXIS_NAME_MAGICNO-11 "22020097.0000000000"
*MEAS_COND_AXIS_NAME_MAGICNO-12 "25165824.0000000000"
*MEAS_COND_AXIS_NAME_MAGICNO-13 "318898176.0000000000"
*MEAS_COND_AXIS_NAME_MAGICNO-14 "1.0000000000"
*MEAS_COND_AXIS_NAME_MAGICNO-15 "20971521.0000000000"
*MEAS_COND_AXIS_NAME_MAGICNO-16 "20971521.0000000000"
*MEAS_COND_AXIS_NAME_MAGICNO-17 "20971521.0000000000"
*MEAS_COND_AXIS_NAME_MAGICNO-18 "23068673.0000000000"
*MEAS_COND_AXIS_NAME_MAGICNO-19 "23068673.0000000000"
*MEAS_COND_AXIS_NAME_MAGICNO-20 "20971521.0000000000"
*MEAS_COND_AXIS_NAME_MAGICNO-21 "20971521.0000000000"
*MEAS_COND_AXIS_NAME_MAGICNO-22 "20971521.0000000000"
*MEAS_COND_AXIS_NAME_MAGICNO-23 "25165824.0000000000"
*MEAS_COND_AXIS_NAME_MAGICNO-24 "25165824.0000000000"
*MEAS_COND_AXIS_NAME_MAGICNO-25 "285343744.0000000000"
*MEAS_COND_AXIS_NAME_MAGICNO-26 "17301505.0000000000"
*MEAS_COND_AXIS_NAME_MAGICNO-27 "20971521.0000000000"
*MEAS_COND_AXIS_NAME_MAGICNO-28 "20971521.0000000000"
*MEAS_COND_AXIS_NAME_MAGICNO-29 "20971521.0000000000"
*MEAS_COND_AXIS_NAME_MAGICNO-30 "0.0000000000"
*MEAS_COND_AXIS_OFFSET-0 "-"
*MEAS_COND_AXIS_OFFSET-1 "-0.1081000000"
*MEAS_COND_AXIS_OFFSET-2 "0.3758000000"
*MEAS_COND_AXIS_OFFSET-3 "-"
*MEAS_COND_AXIS_OFFSET-4 "-"
*MEAS_COND_AXIS_OFFSET-5 "0.3758000000"
*MEAS_COND_AXIS_OFFSET-6 "-0.4839000000"
*MEAS_COND_AXIS_OFFSET-7 "-"
*MEAS_COND_AXIS_OFFSET-8 "-"
*MEAS_COND_AXIS_OFFSET-9 "-"
*MEAS_COND_AXIS_OFFSET-10 "-"
*MEAS_COND_AXIS_OFFSET-11 "-"
*MEAS_COND_AXIS_OFFSET-12 "-"
*MEAS_COND_AXIS_OFFSET-13 "-"
*MEAS_COND_AXIS_OFFSET-14 "-"
*MEAS_COND_AXIS_OFFSET-15 "-"
*MEAS_COND_AXIS_OFFSET-16 "-"
*MEAS_COND_AXIS_OFFSET-17 "-"
*MEAS_COND_AXIS_OFFSET-18 "-"
*MEAS_COND_AXIS_OFFSET-19 "-"
*MEAS_COND_AXIS_OFFSET-20 "-"
*MEAS_COND_AXIS_OFFSET-21 "-"
*MEAS_COND_AXIS_OFFSET-22 "-"
*MEAS_COND_AXIS_OFFSET-23 "-"
*MEAS_COND_AXIS_OFFSET-24 "-"
*MEAS_COND_AXIS_OFFSET-25 "-"
*MEAS_COND_AXIS_OFFSET-26 "-"
*MEAS_COND_AXIS_OFFSET-27 "-"
*MEAS_COND_AXIS_OFFSET-28 "-"
*MEAS_COND_AXIS_OFFSET-29 "-"
*MEAS_COND_AXIS_OFFSET-30 "-"
*MEAS_COND_AXIS_POSITION-0 "0.0000000000"
*MEAS_COND_AXIS_POSITION-1 "0.0000000000"
*MEAS_COND_AXIS_POSITION-2 "0.0000000000"
*MEAS_COND_AXIS_POSITION-3 "-0.5500000000"
*MEAS_COND_AXIS_POSITION-4 "0.0000000000"
*MEAS_COND_AXIS_POSITION-5 "0.0000000000"
*MEAS_COND_AXIS_POSITION-6 "0.0000000000"
*MEAS_COND_AXIS_POSITION-7 "-0.4278800000"
*MEAS_COND_AXIS_POSITION-8 "BB"
*MEAS_COND_AXIS_POSITION-9 "0.0000000000"
*MEAS_COND_AXIS_POSITION-10 "Soller_slit_5.0deg"
*MEAS_COND_AXIS_POSITION-11 "2/3deg"
*MEAS_COND_AXIS_POSITION-12 "2.2088000000"
*MEAS_COND_AXIS_POSITION-13 "-0.4140600000"
*MEAS_COND_AXIS_POSITION-14 "0.0000000000"
*MEAS_COND_AXIS_POSITION-15 "10.0mm"
*MEAS_COND_AXIS_POSITION-16 "None"
*MEAS_COND_AXIS_POSITION-17 "Cu_K-beta"
*MEAS_COND_AXIS_POSITION-18 "13.000mm"
*MEAS_COND_AXIS_POSITION-19 "13.000mm"
*MEAS_COND_AXIS_POSITION-20 "No_unit"
*MEAS_COND_AXIS_POSITION-21 "Soller_slit_5.0deg"
*MEAS_COND_AXIS_POSITION-22 "None"
*MEAS_COND_AXIS_POSITION-23 "13.0000000000"
*MEAS_COND_AXIS_POSITION-24 "13.0000000000"
*MEAS_COND_AXIS_POSITION-25 "0.0109400000"
*MEAS_COND_AXIS_POSITION-26 "Open"
*MEAS_COND_AXIS_POSITION-27 "None"
*MEAS_COND_AXIS_POSITION-28 "None"
*MEAS_COND_AXIS_POSITION-29 "None"
*MEAS_COND_AXIS_POSITION-30 "38.0000000000"
*MEAS_COND_AXIS_UNIT-0 "deg"
*MEAS_COND_AXIS_UNIT-1 "deg"
*MEAS_COND_AXIS_UNIT-2 "deg"
*MEAS_COND_AXIS_UNIT-3 "mm"
*MEAS_COND_AXIS_UNIT-4 "deg"
*MEAS_COND_AXIS_UNIT-5 "deg"
*MEAS_COND_AXIS_UNIT-6 "deg"
*MEAS_COND_AXIS_UNIT-7 "mm"
*MEAS_COND_AXIS_UNIT-8 ""
*MEAS_COND_AXIS_UNIT-9 "pulse"
*MEAS_COND_AXIS_UNIT-10 ""
*MEAS_COND_AXIS_UNIT-11 ""
*MEAS_COND_AXIS_UNIT-12 "mm"
*MEAS_COND_AXIS_UNIT-13 "mm"
*MEAS_COND_AXIS_UNIT-14 ""
*MEAS_COND_AXIS_UNIT-15 ""
*MEAS_COND_AXIS_UNIT-16 ""
*MEAS_COND_AXIS_UNIT-17 ""
*MEAS_COND_AXIS_UNIT-18 ""
*MEAS_COND_AXIS_UNIT-19 ""
*MEAS_COND_AXIS_UNIT-20 ""
*MEAS_COND_AXIS_UNIT-21 ""
*MEAS_COND_AXIS_UNIT-22 ""
*MEAS_COND_AXIS_UNIT-23 "mm"
*MEAS_COND_AXIS_UNIT-24 "mm"
*MEAS_COND_AXIS_UNIT-25 "mm"
*MEAS_COND_AXIS_UNIT-26 ""
*MEAS_COND_AXIS_UNIT-27 ""
*MEAS_COND_AXIS_UNIT-28 ""
*MEAS_COND_AXIS_UNIT-29 ""
*MEAS_COND_AXIS_UNIT-30 "div"
*MEAS_COND_COUNTER_CNTLOSS_CORR "0.0000000000"
*MEAS_COND_COUNTER_PHABASE "38.0000000000"
*MEAS_COND_COUNTER_PHAWINDOW "16.0000000000"
*MEAS_COND_COUNTER_PHA_UNIT "div"
*MEAS_COND_COUNTER_TAUDIFF "30.0000000000"
*MEAS_COND_COUNTER_TAUINT "0.0000000000"
*MEAS_COND_IRRADIATION_MODE "OFF"
*MEAS_COND_IRRADIATION_WIDTH ""
*MEAS_COND_OPT_ATTR "集中法"
*MEAS_COND_OPT_NAME "@集中法"
*MEAS_COND_UNSYMMETRIC_MODE "OFF"
*MEAS_COND_XG_CURRENT "30.0000000000"
*MEAS_COND_XG_VOLTAGE "40.0000000000"
*MEAS_COND_XG_WAVE_TYPE "Ka"
*MEAS_DATA_COUNT "3501.0000000000"
*MEAS_SCAN_AXIS_X "2θ/θ"
*MEAS_SCAN_AXIS_X_INTERNAL "TwoThetaTheta"
*MEAS_SCAN_END_TIME "08/19/20 15:29:15"
*MEAS_SCAN_MODE "CONTINUOUS"
*MEAS_SCAN_MONITOR "0"
*MEAS_SCAN_RESOLUTION_X "0.0002"
*MEAS_SCAN_SPEED "1.0"
*MEAS_SCAN_SPEED_UNIT "deg/min"
*MEAS_SCAN_START "20.0000000000"
*MEAS_SCAN_START_TIME "08/19/20 14:16:21"
*MEAS_SCAN_STEP "0.0200000000"
*MEAS_SCAN_STOP "90.0000000000"
*MEAS_SCAN_UNIT_X "deg"
*MEAS_SCAN_UNIT_Y "counts"
*RAS_HEADER_END
*RAS_INT_START
20.0000 12379.0000 1.0000
20.0200 12202.0000 1.0000
20.0400 12160.0000 1.0000
20.0600 12177.0000 1.0000
20.0800 12023.0000 1.0000
20.1000 12164.0000 1.0000
20.1200 12238.0000 1.0000
20.1400 12107.0000 1.0000
20.1600 12273.0000 1.0000
20.1800 12198.0000 1.0000
20.2000 11992.0000 1.0000
20.2200 11997.0000 1.0000
20.2400 12153.0000 1.0000
20.2600 12290.0000 1.0000
20.2800 12063.0000 1.0000
20.3000 12263.0000 1.0000
20.3200 12238.0000 1.0000
20.3400 12068.0000 1.0000
20.3600 12345.0000 1.0000
20.3800 12083.0000 1.0000
20.4000 12190.0000 1.0000
20.4200 12211.0000 1.0000
20.4400 12072.0000 1.0000
20.4600 12241.0000 1.0000
20.4800 12325.0000 1.0000
20.5000 12438.0000 1.0000
20.5200 12303.0000 1.0000
20.5400 12164.0000 1.0000
20.5600 12305.0000 1.0000
20.5800 12226.0000 1.0000
20.6000 12080.0000 1.0000
20.6200 12187.0000 1.0000
20.6400 12196.0000 1.0000
20.6600 12615.0000 1.0000
20.6800 12366.0000 1.0000
20.7000 12618.0000 1.0000
20.7200 12774.0000 1.0000
20.7400 12672.0000 1.0000
20.7600 12592.0000 1.0000
20.7800 12822.0000 1.0000
20.8000 12755.0000 1.0000
20.8200 12929.0000 1.0000
20.8400 13118.0000 1.0000
20.8600 13434.0000 1.0000
20.8800 13545.0000 1.0000
20.9000 13916.0000 1.0000
20.9200 13761.0000 1.0000
20.9400 13174.0000 1.0000
20.9600 12802.0000 1.0000
20.9800 12652.0000 1.0000
21.0000 12424.0000 1.0000
21.0200 12162.0000 1.0000
21.0400 12321.0000 1.0000
21.0600 12306.0000 1.0000
21.0800 12246.0000 1.0000
21.1000 12402.0000 1.0000
21.1200 12356.0000 1.0000
21.1400 12313.0000 1.0000
21.1600 12139.0000 1.0000
21.1800 12180.0000 1.0000
21.2000 12163.0000 1.0000
21.2200 12181.0000 1.0000
21.2400 12178.0000 1.0000
21.2600 12102.0000 1.0000
21.2800 12147.0000 1.0000
21.3000 12216.0000 1.0000
21.3200 12252.0000 1.0000
21.3400 12219.0000 1.0000
21.3600 12420.0000 1.0000
21.3800 12135.0000 1.0000
21.4000 11995.0000 1.0000
21.4200 12262.0000 1.0000
21.4400 12363.0000 1.0000
21.4600 12104.0000 1.0000
21.4800 12269.0000 1.0000
21.5000 12097.0000 1.0000
21.5200 12176.0000 1.0000
21.5400 11970.0000 1.0000
21.5600 12396.0000 1.0000
21.5800 12191.0000 1.0000
21.6000 12146.0000 1.0000
21.6200 12206.0000 1.0000
21.6400 12215.0000 1.0000
21.6600 12239.0000 1.0000
21.6800 12336.0000 1.0000
21.7000 12251.0000 1.0000
21.7200 12181.0000 1.0000
21.7400 12236.0000 1.0000
21.7600 12293.0000 1.0000
21.7800 12383.0000 1.0000
21.8000 12162.0000 1.0000
21.8200 12170.0000 1.0000
21.8400 12148.0000 1.0000
21.8600 12092.0000 1.0000
21.8800 12224.0000 1.0000
21.9000 12040.0000 1.0000
21.9200 12210.0000 1.0000
21.9400 12022.0000 1.0000
21.9600 11989.0000 1.0000
21.9800 12081.0000 1.0000
22.0000 12297.0000 1.0000
22.0200 12214.0000 1.0000
22.0400 12071.0000 1.0000
22.0600 12134.0000 1.0000
22.0800 12157.0000 1.0000
22.1000 12265.0000 1.0000
22.1200 12070.0000 1.0000
22.1400 12150.0000 1.0000
22.1600 12251.0000 1.0000
22.1800 12109.0000 1.0000
22.2000 12110.0000 1.0000
22.2200 12102.0000 1.0000
22.2400 11749.0000 1.0000
22.2600 12027.0000 1.0000
22.2800 12066.0000 1.0000
22.3000 12005.0000 1.0000
22.3200 12155.0000 1.0000
22.3400 11975.0000 1.0000
22.3600 12134.0000 1.0000
22.3800 12221.0000 1.0000
22.4000 12143.0000 1.0000
22.4200 11890.0000 1.0000
22.4400 12097.0000 1.0000
22.4600 12246.0000 1.0000
22.4800 12215.0000 1.0000
22.5000 12114.0000 1.0000
22.5200 12123.0000 1.0000
22.5400 12102.0000 1.0000
22.5600 11940.0000 1.0000
22.5800 12143.0000 1.0000
22.6000 12141.0000 1.0000
22.6200 11976.0000 1.0000
22.6400 12191.0000 1.0000
22.6600 11953.0000 1.0000
22.6800 12035.0000 1.0000
22.7000 12187.0000 1.0000
22.7200 12176.0000 1.0000
22.7400 12187.0000 1.0000
22.7600 12095.0000 1.0000
22.7800 12053.0000 1.0000
22.8000 12010.0000 1.0000
22.8200 12019.0000 1.0000
22.8400 12224.0000 1.0000
22.8600 12279.0000 1.0000
22.8800 11918.0000 1.0000
22.9000 11980.0000 1.0000
22.9200 12125.0000 1.0000
22.9400 12033.0000 1.0000
22.9600 11846.0000 1.0000
22.9800 12009.0000 1.0000
23.0000 11989.0000 1.0000
23.0200 11881.0000 1.0000
23.0400 12101.0000 1.0000
23.0600 12094.0000 1.0000
23.0800 11947.0000 1.0000
23.1000 12083.0000 1.0000
23.1200 12248.0000 1.0000
23.1400 11943.0000 1.0000
23.1600 12123.0000 1.0000
23.1800 12160.0000 1.0000
23.2000 12028.0000 1.0000
23.2200 12223.0000 1.0000
23.2400 12047.0000 1.0000
23.2600 12018.0000 1.0000
23.2800 12002.0000 1.0000
23.3000 12183.0000 1.0000
23.3200 11974.0000 1.0000
23.3400 11987.0000 1.0000
23.3600 11985.0000 1.0000
23.3800 12039.0000 1.0000
23.4000 12103.0000 1.0000
23.4200 11966.0000 1.0000
23.4400 11900.0000 1.0000
23.4600 11972.0000 1.0000
23.4800 12139.0000 1.0000
23.5000 11988.0000 1.0000
23.5200 12113.0000 1.0000
23.5400 12129.0000 1.0000
23.5600 12028.0000 1.0000
23.5800 12096.0000 1.0000
23.6000 12155.0000 1.0000
23.6200 12219.0000 1.0000
23.6400 12084.0000 1.0000
23.6600 12136.0000 1.0000
23.6800 12104.0000 1.0000
23.7000 12222.0000 1.0000
23.7200 12125.0000 1.0000
23.7400 12065.0000 1.0000
23.7600 12196.0000 1.0000
23.7800 12351.0000 1.0000
23.8000 12038.0000 1.0000
23.8200 12136.0000 1.0000
23.8400 12158.0000 1.0000
23.8600 12218.0000 1.0000
23.8800 12201.0000 1.0000
23.9000 12243.0000 1.0000
23.9200 12266.0000 1.0000
23.9400 12235.0000 1.0000
23.9600 12194.0000 1.0000
23.9800 12434.0000 1.0000
24.0000 12480.0000 1.0000
24.0200 12676.0000 1.0000
24.0400 12611.0000 1.0000
24.0600 12803.0000 1.0000
24.0800 12797.0000 1.0000
24.1000 12835.0000 1.0000
24.1200 13190.0000 1.0000
24.1400 13317.0000 1.0000
24.1600 13644.0000 1.0000
24.1800 13742.0000 1.0000
24.2000 13896.0000 1.0000
24.2200 13530.0000 1.0000
24.2400 13162.0000 1.0000
24.2600 12720.0000 1.0000
24.2800 12552.0000 1.0000
24.3000 12468.0000 1.0000
24.3200 12392.0000 1.0000
24.3400 12207.0000 1.0000
24.3600 12298.0000 1.0000
24.3800 12209.0000 1.0000
24.4000 12112.0000 1.0000
24.4200 12125.0000 1.0000
24.4400 11975.0000 1.0000
24.4600 12088.0000 1.0000
24.4800 12028.0000 1.0000
24.5000 12007.0000 1.0000
24.5200 12119.0000 1.0000
24.5400 11996.0000 1.0000
24.5600 11875.0000 1.0000
24.5800 11778.0000 1.0000
24.6000 11992.0000 1.0000
24.6200 12134.0000 1.0000
24.6400 12088.0000 1.0000
24.6600 12137.0000 1.0000
24.6800 11966.0000 1.0000
24.7000 12164.0000 1.0000
24.7200 12190.0000 1.0000
24.7400 11966.0000 1.0000
24.7600 11858.0000 1.0000
24.7800 12119.0000 1.0000
24.8000 12049.0000 1.0000
24.8200 12015.0000 1.0000
24.8400 11968.0000 1.0000
24.8600 12093.0000 1.0000
24.8800 11893.0000 1.0000
24.9000 11951.0000 1.0000
24.9200 12000.0000 1.0000
24.9400 11944.0000 1.0000
24.9600 11882.0000 1.0000
24.9800 12080.0000 1.0000
25.0000 11931.0000 1.0000
25.0200 12010.0000 1.0000
25.0400 11958.0000 1.0000
25.0600 12070.0000 1.0000
25.0800 11831.0000 1.0000
25.1000 12044.0000 1.0000
25.1200 12034.0000 1.0000
25.1400 11987.0000 1.0000
25.1600 11999.0000 1.0000
25.1800 11970.0000 1.0000
25.2000 12169.0000 1.0000
25.2200 11934.0000 1.0000
25.2400 11941.0000 1.0000
25.2600 12226.0000 1.0000
25.2800 12060.0000 1.0000
25.3000 12059.0000 1.0000
25.3200 12098.0000 1.0000
25.3400 11981.0000 1.0000
25.3600 11869.0000 1.0000
25.3800 12020.0000 1.0000
25.4000 12073.0000 1.0000
25.4200 12014.0000 1.0000
25.4400 12206.0000 1.0000
25.4600 12338.0000 1.0000
25.4800 12085.0000 1.0000
25.5000 12166.0000 1.0000
25.5200 12302.0000 1.0000
25.5400 12131.0000 1.0000
25.5600 12388.0000 1.0000
25.5800 12455.0000 1.0000
25.6000 12313.0000 1.0000
25.6200 12180.0000 1.0000
25.6400 12532.0000 1.0000
25.6600 12076.0000 1.0000
25.6800 12242.0000 1.0000
25.7000 11961.0000 1.0000
25.7200 12076.0000 1.0000
25.7400 11856.0000 1.0000
25.7600 12144.0000 1.0000
25.7800 12145.0000 1.0000
25.8000 12085.0000 1.0000
25.8200 12130.0000 1.0000
25.8400 12161.0000 1.0000
25.8600 12208.0000 1.0000
25.8800 12033.0000 1.0000
25.9000 11959.0000 1.0000
25.9200 11943.0000 1.0000
25.9400 11851.0000 1.0000
25.9600 11934.0000 1.0000
25.9800 12159.0000 1.0000
26.0000 11993.0000 1.0000
26.0200 11890.0000 1.0000
26.0400 11937.0000 1.0000
26.0600 11727.0000 1.0000
26.0800 12076.0000 1.0000
26.1000 11956.0000 1.0000
26.1200 12059.0000 1.0000
26.1400 12111.0000 1.0000
26.1600 11982.0000 1.0000
26.1800 12149.0000 1.0000
26.2000 11857.0000 1.0000
26.2200 12070.0000 1.0000
26.2400 11922.0000 1.0000
26.2600 12114.0000 1.0000
26.2800 12225.0000 1.0000
26.3000 11884.0000 1.0000
26.3200 12035.0000 1.0000
26.3400 12089.0000 1.0000
26.3600 12072.0000 1.0000
26.3800 12100.0000 1.0000
26.4000 12481.0000 1.0000
26.4200 12473.0000 1.0000
26.4400 12348.0000 1.0000
26.4600 12608.0000 1.0000
26.4800 12948.0000 1.0000
26.5000 13204.0000 1.0000
26.5200 13969.0000 1.0000
26.5400 14715.0000 1.0000
26.5600 15043.0000 1.0000
26.5800 15515.0000 1.0000
26.6000 16194.0000 1.0000
26.6200 18380.0000 1.0000
26.6400 21466.0000 1.0000
26.6600 25867.0000 1.0000
26.6800 27698.0000 1.0000
26.7000 21554.0000 1.0000
26.7200 19682.0000 1.0000
26.7400 20012.0000 1.0000
26.7600 17440.0000 1.0000
26.7800 14287.0000 1.0000
26.8000 13190.0000 1.0000
26.8200 12752.0000 1.0000
26.8400 12498.0000 1.0000
26.8600 12372.0000 1.0000
26.8800 12093.0000 1.0000
26.9000 12014.0000 1.0000
26.9200 12062.0000 1.0000
26.9400 11822.0000 1.0000
26.9600 11866.0000 1.0000
26.9800 11913.0000 1.0000
27.0000 11855.0000 1.0000
27.0200 11981.0000 1.0000
27.0400 11948.0000 1.0000
27.0600 11799.0000 1.0000
27.0800 11901.0000 1.0000
27.1000 11849.0000 1.0000
27.1200 11753.0000 1.0000
27.1400 11978.0000 1.0000
27.1600 11744.0000 1.0000
27.1800 11936.0000 1.0000
27.2000 11873.0000 1.0000
27.2200 11816.0000 1.0000
27.2400 12009.0000 1.0000
27.2600 11917.0000 1.0000
27.2800 11727.0000 1.0000
27.3000 11888.0000 1.0000
27.3200 11870.0000 1.0000
27.3400 11697.0000 1.0000
27.3600 11833.0000 1.0000
27.3800 11671.0000 1.0000
27.4000 11773.0000 1.0000
27.4200 11714.0000 1.0000
27.4400 11745.0000 1.0000
27.4600 11652.0000 1.0000
27.4800 11891.0000 1.0000
27.5000 11793.0000 1.0000
27.5200 11723.0000 1.0000
27.5400 11733.0000 1.0000
27.5600 11607.0000 1.0000
27.5800 11698.0000 1.0000
27.6000 11577.0000 1.0000
27.6200 11785.0000 1.0000
27.6400 11725.0000 1.0000
27.6600 11700.0000 1.0000
27.6800 11667.0000 1.0000
27.7000 11739.0000 1.0000
27.7200 11622.0000 1.0000
27.7400 11680.0000 1.0000
27.7600 11454.0000 1.0000
27.7800 11667.0000 1.0000
27.8000 11916.0000 1.0000
27.8200 11815.0000 1.0000
27.8400 11701.0000 1.0000
27.8600 11634.0000 1.0000
27.8800 11703.0000 1.0000
27.9000 11545.0000 1.0000
27.9200 11612.0000 1.0000
27.9400 11718.0000 1.0000
27.9600 11703.0000 1.0000
27.9800 11860.0000 1.0000
28.0000 11801.0000 1.0000
28.0200 11519.0000 1.0000
28.0400 11486.0000 1.0000
28.0600 11787.0000 1.0000
28.0800 11549.0000 1.0000
28.1000 11577.0000 1.0000
28.1200 11735.0000 1.0000
28.1400 11589.0000 1.0000
28.1600 11804.0000 1.0000
28.1800 11855.0000 1.0000
28.2000 11729.0000 1.0000
28.2200 11479.0000 1.0000
28.2400 11754.0000 1.0000
28.2600 11725.0000 1.0000
28.2800 11603.0000 1.0000
28.3000 11667.0000 1.0000
28.3200 11681.0000 1.0000
28.3400 11599.0000 1.0000
28.3600 11522.0000 1.0000
28.3800 11619.0000 1.0000
28.4000 11400.0000 1.0000
28.4200 11680.0000 1.0000
28.4400 11608.0000 1.0000
28.4600 11761.0000 1.0000
28.4800 11397.0000 1.0000
28.5000 11695.0000 1.0000
28.5200 11649.0000 1.0000
28.5400 11674.0000 1.0000
28.5600 11675.0000 1.0000
28.5800 11669.0000 1.0000
28.6000 11498.0000 1.0000
28.6200 11657.0000 1.0000
28.6400 11615.0000 1.0000
28.6600 11602.0000 1.0000
28.6800 11383.0000 1.0000
28.7000 11534.0000 1.0000
28.7200 11661.0000 1.0000
28.7400 11538.0000 1.0000
28.7600 11433.0000 1.0000
28.7800 11533.0000 1.0000
28.8000 11474.0000 1.0000
28.8200 11642.0000 1.0000
28.8400 11491.0000 1.0000
28.8600 11422.0000 1.0000
28.8800 11615.0000 1.0000
28.9000 11636.0000 1.0000
28.9200 11569.0000 1.0000
28.9400 11397.0000 1.0000
28.9600 11669.0000 1.0000
28.9800 11545.0000 1.0000
29.0000 11596.0000 1.0000
29.0200 11526.0000 1.0000
29.0400 11726.0000 1.0000
29.0600 11534.0000 1.0000
29.0800 11736.0000 1.0000
29.1000 11676.0000 1.0000
29.1200 11388.0000 1.0000
29.1400 11613.0000 1.0000
29.1600 11688.0000 1.0000
29.1800 11538.0000 1.0000
29.2000 11606.0000 1.0000
29.2200 11608.0000 1.0000
29.2400 11509.0000 1.0000
29.2600 11660.0000 1.0000
29.2800 11440.0000 1.0000
29.3000 11689.0000 1.0000
29.3200 11588.0000 1.0000
29.3400 11580.0000 1.0000
29.3600 11736.0000 1.0000
29.3800 11553.0000 1.0000
29.4000 11589.0000 1.0000
29.4200 11427.0000 1.0000
29.4400 11458.0000 1.0000
29.4600 11805.0000 1.0000
29.4800 11534.0000 1.0000
29.5000 11519.0000 1.0000
29.5200 11596.0000 1.0000
29.5400 11527.0000 1.0000
29.5600 11647.0000 1.0000
29.5800 11687.0000 1.0000
29.6000 11560.0000 1.0000
29.6200 11723.0000 1.0000
29.6400 11499.0000 1.0000
29.6600 11608.0000 1.0000
29.6800 11414.0000 1.0000
29.7000 11544.0000 1.0000
29.7200 11531.0000 1.0000
29.7400 11696.0000 1.0000
29.7600 11585.0000 1.0000
29.7800 11700.0000 1.0000
29.8000 11648.0000 1.0000
29.8200 11859.0000 1.0000
29.8400 11751.0000 1.0000
29.8600 11976.0000 1.0000
29.8800 12062.0000 1.0000
29.9000 12107.0000 1.0000
29.9200 11977.0000 1.0000
29.9400 12119.0000 1.0000
29.9600 12301.0000 1.0000
29.9800 12238.0000 1.0000
30.0000 12544.0000 1.0000
30.0200 12969.0000 1.0000
30.0400 13110.0000 1.0000
30.0600 13985.0000 1.0000
30.0800 14367.0000 1.0000
30.1000 15351.0000 1.0000
30.1200 16164.0000 1.0000
30.1400 16677.0000 1.0000
30.1600 16950.0000 1.0000
30.1800 16249.0000 1.0000
30.2000 16024.0000 1.0000
30.2200 15365.0000 1.0000
30.2400 15105.0000 1.0000
30.2600 14443.0000 1.0000
30.2800 13644.0000 1.0000
30.3000 13128.0000 1.0000
30.3200 12613.0000 1.0000
30.3400 12508.0000 1.0000
30.3600 12278.0000 1.0000
30.3800 12138.0000 1.0000
30.4000 12044.0000 1.0000
30.4200 11837.0000 1.0000
30.4400 11724.0000 1.0000
30.4600 11720.0000 1.0000
30.4800 11872.0000 1.0000
30.5000 11661.0000 1.0000
30.5200 11500.0000 1.0000
30.5400 11673.0000 1.0000
30.5600 11621.0000 1.0000
30.5800 11642.0000 1.0000
30.6000 11673.0000 1.0000
30.6200 11632.0000 1.0000
30.6400 11601.0000 1.0000
30.6600 11508.0000 1.0000
30.6800 11585.0000 1.0000
30.7000 11581.0000 1.0000
30.7200 11650.0000 1.0000
30.7400 11531.0000 1.0000
30.7600 11698.0000 1.0000
30.7800 11725.0000 1.0000
30.8000 11557.0000 1.0000
30.8200 11567.0000 1.0000
30.8400 11644.0000 1.0000
30.8600 11724.0000 1.0000
30.8800 11821.0000 1.0000
30.9000 11427.0000 1.0000
30.9200 11529.0000 1.0000
30.9400 11630.0000 1.0000
30.9600 11424.0000 1.0000
30.9800 11523.0000 1.0000
31.0000 11547.0000 1.0000
31.0200 11484.0000 1.0000
31.0400 11603.0000 1.0000
31.0600 11565.0000 1.0000
31.0800 11553.0000 1.0000
31.1000 11605.0000 1.0000
31.1200 11348.0000 1.0000
31.1400 11534.0000 1.0000
31.1600 11467.0000 1.0000
31.1800 11562.0000 1.0000
31.2000 11569.0000 1.0000
31.2200 11365.0000 1.0000
31.2400 11577.0000 1.0000
31.2600 11579.0000 1.0000
31.2800 11513.0000 1.0000
31.3000 11478.0000 1.0000
31.3200 11692.0000 1.0000
31.3400 11660.0000 1.0000
31.3600 11499.0000 1.0000
31.3800 11492.0000 1.0000
31.4000 11490.0000 1.0000
31.4200 11526.0000 1.0000
31.4400 11556.0000 1.0000
31.4600 11484.0000 1.0000
31.4800 11467.0000 1.0000
31.5000 11487.0000 1.0000
31.5200 11658.0000 1.0000
31.5400 11554.0000 1.0000
31.5600 11512.0000 1.0000
31.5800 11552.0000 1.0000
31.6000 11581.0000 1.0000
31.6200 11408.0000 1.0000
31.6400 11504.0000 1.0000
31.6600 11523.0000 1.0000
31.6800 11567.0000 1.0000
31.7000 11510.0000 1.0000
31.7200 11523.0000 1.0000
31.7400 11520.0000 1.0000
31.7600 11743.0000 1.0000
31.7800 11712.0000 1.0000
31.8000 11643.0000 1.0000
31.8200 11663.0000 1.0000
31.8400 11519.0000 1.0000
31.8600 11581.0000 1.0000
31.8800 11497.0000 1.0000
31.9000 11548.0000 1.0000
31.9200 11582.0000 1.0000
31.9400 11510.0000 1.0000
31.9600 11606.0000 1.0000
31.9800 11463.0000 1.0000
32.0000 11692.0000 1.0000
32.0200 11742.0000 1.0000
32.0400 11821.0000 1.0000
32.0600 11674.0000 1.0000
32.0800 11473.0000 1.0000
32.1000 11786.0000 1.0000
32.1200 11734.0000 1.0000
32.1400 11749.0000 1.0000
32.1600 11744.0000 1.0000
32.1800 11640.0000 1.0000
32.2000 11427.0000 1.0000
32.2200 11624.0000 1.0000
32.2400 11728.0000 1.0000
32.2600 11479.0000 1.0000
32.2800 11544.0000 1.0000
32.3000 11558.0000 1.0000
32.3200 11475.0000 1.0000
32.3400 11419.0000 1.0000
32.3600 11507.0000 1.0000
32.3800 11674.0000 1.0000
32.4000 11668.0000 1.0000
32.4200 11507.0000 1.0000
32.4400 11682.0000 1.0000
32.4600 11620.0000 1.0000
32.4800 11474.0000 1.0000
32.5000 11514.0000 1.0000
32.5200 11471.0000 1.0000
32.5400 11621.0000 1.0000
32.5600 11457.0000 1.0000
32.5800 11373.0000 1.0000
32.6000 11613.0000 1.0000
32.6200 11404.0000 1.0000
32.6400 11534.0000 1.0000
32.6600 11673.0000 1.0000
32.6800 11551.0000 1.0000
32.7000 11582.0000 1.0000
32.7200 11558.0000 1.0000
32.7400 11643.0000 1.0000
32.7600 11676.0000 1.0000
32.7800 11727.0000 1.0000
32.8000 11619.0000 1.0000
32.8200 11636.0000 1.0000
32.8400 11746.0000 1.0000
32.8600 11544.0000 1.0000
32.8800 11711.0000 1.0000
32.9000 11459.0000 1.0000
32.9200 11778.0000 1.0000
32.9400 11815.0000 1.0000
32.9600 12102.0000 1.0000
32.9800 12118.0000 1.0000
33.0000 12267.0000 1.0000
33.0200 12440.0000 1.0000
33.0400 12684.0000 1.0000
33.0600 12985.0000 1.0000
33.0800 13404.0000 1.0000
33.1000 13897.0000 1.0000
33.1200 14879.0000 1.0000
33.1400 15755.0000 1.0000
33.1600 16767.0000 1.0000
33.1800 17359.0000 1.0000
33.2000 17259.0000 1.0000
33.2200 16710.0000 1.0000
33.2400 15941.0000 1.0000
33.2600 15043.0000 1.0000
33.2800 14715.0000 1.0000
33.3000 14051.0000 1.0000
33.3200 13379.0000 1.0000
33.3400 12790.0000 1.0000
33.3600 12337.0000 1.0000
33.3800 12030.0000 1.0000
33.4000 11711.0000 1.0000
33.4200 11957.0000 1.0000
33.4400 11879.0000 1.0000
33.4600 11751.0000 1.0000
33.4800 11830.0000 1.0000
33.5000 11692.0000 1.0000
33.5200 11523.0000 1.0000
33.5400 11567.0000 1.0000
33.5600 11688.0000 1.0000
33.5800 11630.0000 1.0000
33.6000 11557.0000 1.0000
33.6200 11654.0000 1.0000
33.6400 11529.0000 1.0000
33.6600 11596.0000 1.0000
33.6800 11410.0000 1.0000
33.7000 11717.0000 1.0000
33.7200 11490.0000 1.0000
33.7400 11439.0000 1.0000
33.7600 11695.0000 1.0000
33.7800 11587.0000 1.0000
33.8000 11478.0000 1.0000
33.8200 11657.0000 1.0000
33.8400 11552.0000 1.0000
33.8600 11483.0000 1.0000
33.8800 11417.0000 1.0000
33.9000 11520.0000 1.0000
33.9200 11630.0000 1.0000
33.9400 11472.0000 1.0000
33.9600 11514.0000 1.0000
33.9800 11310.0000 1.0000
34.0000 11597.0000 1.0000
34.0200 11555.0000 1.0000
34.0400 11450.0000 1.0000
34.0600 11445.0000 1.0000
34.0800 11350.0000 1.0000
34.1000 11369.0000 1.0000
34.1200 11631.0000 1.0000
34.1400 11552.0000 1.0000
34.1600 11495.0000 1.0000
34.1800 11516.0000 1.0000
34.2000 11193.0000 1.0000
34.2200 11280.0000 1.0000
34.2400 11675.0000 1.0000
34.2600 11496.0000 1.0000
34.2800 11593.0000 1.0000
34.3000 11655.0000 1.0000
34.3200 11510.0000 1.0000
34.3400 11794.0000 1.0000
34.3600 11651.0000 1.0000
34.3800 11605.0000 1.0000
34.4000 11697.0000 1.0000
34.4200 11543.0000 1.0000
34.4400 11475.0000 1.0000
34.4600 11563.0000 1.0000
34.4800 11577.0000 1.0000
34.5000 11446.0000 1.0000
34.5200 11588.0000 1.0000
34.5400 11528.0000 1.0000
34.5600 11527.0000 1.0000
34.5800 11429.0000 1.0000
34.6000 11501.0000 1.0000
34.6200 11531.0000 1.0000
34.6400 11512.0000 1.0000
34.6600 11572.0000 1.0000
34.6800 11651.0000 1.0000
34.7000 11551.0000 1.0000
34.7200 11441.0000 1.0000
34.7400 11532.0000 1.0000
34.7600 11537.0000 1.0000
34.7800 11627.0000 1.0000
34.8000 11503.0000 1.0000
34.8200 11548.0000 1.0000
34.8400 11602.0000 1.0000
34.8600 11529.0000 1.0000
34.8800 11604.0000 1.0000
34.9000 11698.0000 1.0000
34.9200 11675.0000 1.0000
34.9400 11525.0000 1.0000
34.9600 11755.0000 1.0000
34.9800 11578.0000 1.0000
35.0000 11386.0000 1.0000
35.0200 11596.0000 1.0000
35.0400 11895.0000 1.0000
35.0600 11866.0000 1.0000
35.0800 11913.0000 1.0000
35.1000 12046.0000 1.0000
35.1200 12035.0000 1.0000
35.1400 12140.0000 1.0000
35.1600 12496.0000 1.0000
35.1800 12575.0000 1.0000
35.2000 12629.0000 1.0000
35.2200 12736.0000 1.0000
35.2400 12924.0000 1.0000
35.2600 12879.0000 1.0000
35.2800 13252.0000 1.0000
35.3000 13205.0000 1.0000
35.3200 13556.0000 1.0000
35.3400 14157.0000 1.0000
35.3600 14716.0000 1.0000
35.3800 15565.0000 1.0000
35.4000 17066.0000 1.0000
35.4200 18791.0000 1.0000
35.4400 21375.0000 1.0000
35.4600 24193.0000 1.0000
35.4800 27331.0000 1.0000
35.5000 28744.0000 1.0000
35.5200 29324.0000 1.0000
35.5400 28676.0000 1.0000
35.5600 27157.0000 1.0000
35.5800 26423.0000 1.0000
35.6000 25731.0000 1.0000
35.6200 24523.0000 1.0000
35.6400 23245.0000 1.0000
35.6600 21576.0000 1.0000
35.6800 20050.0000 1.0000
35.7000 18207.0000 1.0000
35.7200 17056.0000 1.0000
35.7400 16155.0000 1.0000
35.7600 15545.0000 1.0000
35.7800 14542.0000 1.0000
35.8000 13594.0000 1.0000
35.8200 13064.0000 1.0000
35.8400 12628.0000 1.0000
35.8600 12356.0000 1.0000
35.8800 12233.0000 1.0000
35.9000 12153.0000 1.0000
35.9200 11899.0000 1.0000
35.9400 11883.0000 1.0000
35.9600 11663.0000 1.0000
35.9800 11753.0000 1.0000
36.0000 11679.0000 1.0000
36.0200 11609.0000 1.0000
36.0400 11557.0000 1.0000
36.0600 11481.0000 1.0000
36.0800 11623.0000 1.0000
36.1000 11404.0000 1.0000
36.1200 11643.0000 1.0000
36.1400 11464.0000 1.0000
36.1600 11444.0000 1.0000
36.1800 11474.0000 1.0000
36.2000 11546.0000 1.0000
36.2200 11456.0000 1.0000
36.2400 11422.0000 1.0000
36.2600 11589.0000 1.0000
36.2800 11334.0000 1.0000
36.3000 11398.0000 1.0000
36.3200 11464.0000 1.0000
36.3400 11346.0000 1.0000
36.3600 11412.0000 1.0000
36.3800 11446.0000 1.0000
36.4000 11371.0000 1.0000
36.4200 11342.0000 1.0000
36.4400 11497.0000 1.0000
36.4600 11421.0000 1.0000
36.4800 11777.0000 1.0000
36.5000 11884.0000 1.0000
36.5200 11714.0000 1.0000
36.5400 11717.0000 1.0000
36.5600 12009.0000 1.0000
36.5800 12036.0000 1.0000
36.6000 11959.0000 1.0000
36.6200 11612.0000 1.0000
36.6400 11641.0000 1.0000
36.6600 11602.0000 1.0000
36.6800 11617.0000 1.0000
36.7000 11682.0000 1.0000
36.7200 11469.0000 1.0000
36.7400 11567.0000 1.0000
36.7600 11215.0000 1.0000
36.7800 11329.0000 1.0000
36.8000 11224.0000 1.0000
36.8200 11087.0000 1.0000
36.8400 11210.0000 1.0000
36.8600 11280.0000 1.0000
36.8800 11224.0000 1.0000
36.9000 11292.0000 1.0000
36.9200 11263.0000 1.0000
36.9400 11267.0000 1.0000
36.9600 11609.0000 1.0000
36.9800 11484.0000 1.0000
37.0000 11351.0000 1.0000
37.0200 11463.0000 1.0000
37.0400 11604.0000 1.0000
37.0600 11668.0000 1.0000
37.0800 11831.0000 1.0000
37.1000 12006.0000 1.0000
37.1200 12056.0000 1.0000
37.1400 12285.0000 1.0000
37.1600 12156.0000 1.0000
37.1800 12039.0000 1.0000
37.2000 11943.0000 1.0000
37.2200 12040.0000 1.0000
37.2400 11905.0000 1.0000
37.2600 11860.0000 1.0000
37.2800 11555.0000 1.0000
37.3000 11359.0000 1.0000
37.3200 11458.0000 1.0000
37.3400 11487.0000 1.0000
37.3600 11324.0000 1.0000
37.3800 11234.0000 1.0000
37.4000 11308.0000 1.0000
37.4200 11193.0000 1.0000
37.4400 11212.0000 1.0000
37.4600 11287.0000 1.0000
37.4800 11238.0000 1.0000
37.5000 11165.0000 1.0000
37.5200 11288.0000 1.0000
37.5400 11282.0000 1.0000
37.5600 11193.0000 1.0000
37.5800 11259.0000 1.0000
37.6000 11196.0000 1.0000
37.6200 11292.0000 1.0000
37.6400 11225.0000 1.0000
37.6600 11262.0000 1.0000
37.6800 11359.0000 1.0000
37.7000 11205.0000 1.0000
37.7200 11223.0000 1.0000
37.7400 11375.0000 1.0000
37.7600 11336.0000 1.0000
37.7800 11628.0000 1.0000
37.8000 11568.0000 1.0000
37.8200 11458.0000 1.0000
37.8400 11517.0000 1.0000
37.8600 11388.0000 1.0000
37.8800 11249.0000 1.0000
37.9000 11544.0000 1.0000
37.9200 11375.0000 1.0000
37.9400 11217.0000 1.0000
37.9600 11361.0000 1.0000
37.9800 11371.0000 1.0000
38.0000 11294.0000 1.0000
38.0200 11090.0000 1.0000
38.0400 11232.0000 1.0000
38.0600 11211.0000 1.0000
38.0800 11109.0000 1.0000
38.1000 11016.0000 1.0000
38.1200 11205.0000 1.0000
38.1400 11285.0000 1.0000
38.1600 11190.0000 1.0000
38.1800 11169.0000 1.0000
38.2000 11224.0000 1.0000
38.2200 11170.0000 1.0000
38.2400 11239.0000 1.0000
38.2600 11343.0000 1.0000
38.2800 11277.0000 1.0000
38.3000 11335.0000 1.0000
38.3200 11226.0000 1.0000
38.3400 11116.0000 1.0000
38.3600 11149.0000 1.0000
38.3800 11206.0000 1.0000
38.4000 11260.0000 1.0000
38.4200 11039.0000 1.0000
38.4400 11232.0000 1.0000
38.4600 11261.0000 1.0000
38.4800 11143.0000 1.0000
38.5000 11189.0000 1.0000
38.5200 11162.0000 1.0000
38.5400 11276.0000 1.0000
38.5600 11096.0000 1.0000
38.5800 11077.0000 1.0000
38.6000 11257.0000 1.0000
38.6200 11174.0000 1.0000
38.6400 11193.0000 1.0000
38.6600 11228.0000 1.0000
38.6800 11109.0000 1.0000
38.7000 11109.0000 1.0000
38.7200 11341.0000 1.0000
38.7400 11102.0000 1.0000
38.7600 11267.0000 1.0000
38.7800 11113.0000 1.0000
38.8000 11231.0000 1.0000
38.8200 11168.0000 1.0000
38.8400 11184.0000 1.0000
38.8600 11107.0000 1.0000
38.8800 11182.0000 1.0000
38.9000 11065.0000 1.0000
38.9200 11139.0000 1.0000
38.9400 11221.0000 1.0000
38.9600 11340.0000 1.0000
38.9800 11286.0000 1.0000
39.0000 11274.0000 1.0000
39.0200 11156.0000 1.0000
39.0400 11155.0000 1.0000
39.0600 11249.0000 1.0000
39.0800 11401.0000 1.0000
39.1000 11223.0000 1.0000
39.1200 10983.0000 1.0000
39.1400 11369.0000 1.0000
39.1600 11370.0000 1.0000
39.1800 11265.0000 1.0000
39.2000 11211.0000 1.0000
39.2200 11386.0000 1.0000
39.2400 11114.0000 1.0000
39.2600 11177.0000 1.0000
39.2800 11213.0000 1.0000
39.3000 11330.0000 1.0000
39.3200 11420.0000 1.0000
39.3400 11503.0000 1.0000
39.3600 11342.0000 1.0000
39.3800 11304.0000 1.0000
39.4000 11323.0000 1.0000
39.4200 11230.0000 1.0000
39.4400 11597.0000 1.0000
39.4600 11854.0000 1.0000
39.4800 11788.0000 1.0000
39.5000 11784.0000 1.0000
39.5200 11548.0000 1.0000
39.5400 11430.0000 1.0000
39.5600 11508.0000 1.0000
39.5800 11614.0000 1.0000
39.6000 11617.0000 1.0000
39.6200 11238.0000 1.0000
39.6400 11052.0000 1.0000
39.6600 11230.0000 1.0000
39.6800 11339.0000 1.0000
39.7000 11250.0000 1.0000
39.7200 11005.0000 1.0000
39.7400 11258.0000 1.0000
39.7600 11329.0000 1.0000
39.7800 11327.0000 1.0000
39.8000 11088.0000 1.0000
39.8200 11027.0000 1.0000
39.8400 11245.0000 1.0000
39.8600 11172.0000 1.0000
39.8800 11168.0000 1.0000
39.9000 11269.0000 1.0000
39.9200 11127.0000 1.0000
39.9400 11371.0000 1.0000
39.9600 11155.0000 1.0000
39.9800 11146.0000 1.0000
40.0000 11208.0000 1.0000
40.0200 11324.0000 1.0000
40.0400 11180.0000 1.0000
40.0600 11233.0000 1.0000
40.0800 11072.0000 1.0000
40.1000 11248.0000 1.0000
40.1200 11175.0000 1.0000
40.1400 11330.0000 1.0000
40.1600 11340.0000 1.0000
40.1800 11264.0000 1.0000
40.2000 11426.0000 1.0000
40.2200 11338.0000 1.0000
40.2400 11305.0000 1.0000
40.2600 11384.0000 1.0000
40.2800 11454.0000 1.0000
40.3000 11453.0000 1.0000
40.3200 11534.0000 1.0000
40.3400 11439.0000 1.0000
40.3600 11275.0000 1.0000
40.3800 11286.0000 1.0000
40.4000 11500.0000 1.0000
40.4200 11477.0000 1.0000
40.4400 11511.0000 1.0000
40.4600 11169.0000 1.0000
40.4800 11404.0000 1.0000
40.5000 11207.0000 1.0000
40.5200 11139.0000 1.0000
40.5400 11081.0000 1.0000
40.5600 11330.0000 1.0000
40.5800 11376.0000 1.0000
40.6000 11187.0000 1.0000
40.6200 11394.0000 1.0000
40.6400 11398.0000 1.0000
40.6600 11362.0000 1.0000
40.6800 11457.0000 1.0000
40.7000 11437.0000 1.0000
40.7200 11437.0000 1.0000
40.7400 11419.0000 1.0000
40.7600 11469.0000 1.0000
40.7800 11479.0000 1.0000
40.8000 11902.0000 1.0000
40.8200 11767.0000 1.0000
40.8400 12134.0000 1.0000
40.8600 12187.0000 1.0000
40.8800 12437.0000 1.0000
40.9000 12232.0000 1.0000
40.9200 12233.0000 1.0000
40.9400 12181.0000 1.0000
40.9600 12009.0000 1.0000
40.9800 11927.0000 1.0000
41.0000 11978.0000 1.0000
41.0200 11822.0000 1.0000
41.0400 11564.0000 1.0000
41.0600 11456.0000 1.0000
41.0800 11395.0000 1.0000
41.1000 11235.0000 1.0000
41.1200 11236.0000 1.0000
41.1400 11338.0000 1.0000
41.1600 11186.0000 1.0000
41.1800 11269.0000 1.0000
41.2000 11097.0000 1.0000
41.2200 11305.0000 1.0000
41.2400 11153.0000 1.0000
41.2600 11277.0000 1.0000
41.2800 11313.0000 1.0000
41.3000 11267.0000 1.0000
41.3200 11138.0000 1.0000
41.3400 11158.0000 1.0000
41.3600 11191.0000 1.0000
41.3800 11155.0000 1.0000
41.4000 11275.0000 1.0000
41.4200 11206.0000 1.0000
41.4400 11077.0000 1.0000
41.4600 11198.0000 1.0000
41.4800 11184.0000 1.0000
41.5000 11196.0000 1.0000
41.5200 11232.0000 1.0000
41.5400 11055.0000 1.0000
41.5600 11291.0000 1.0000
41.5800 11092.0000 1.0000
41.6000 11178.0000 1.0000
41.6200 11242.0000 1.0000
41.6400 11397.0000 1.0000
41.6600 11041.0000 1.0000
41.6800 11319.0000 1.0000
41.7000 11222.0000 1.0000
41.7200 11121.0000 1.0000
41.7400 11352.0000 1.0000
41.7600 11213.0000 1.0000
41.7800 11190.0000 1.0000
41.8000 11191.0000 1.0000
41.8200 11247.0000 1.0000
41.8400 11259.0000 1.0000
41.8600 11274.0000 1.0000
41.8800 11228.0000 1.0000
41.9000 11148.0000 1.0000
41.9200 11049.0000 1.0000
41.9400 11271.0000 1.0000
41.9600 11134.0000 1.0000
41.9800 11272.0000 1.0000
42.0000 11278.0000 1.0000
42.0200 11301.0000 1.0000
42.0400 11254.0000 1.0000
42.0600 11156.0000 1.0000
42.0800 11179.0000 1.0000
42.1000 11232.0000 1.0000
42.1200 11265.0000 1.0000
42.1400 11329.0000 1.0000
42.1600 11263.0000 1.0000
42.1800 11016.0000 1.0000
42.2000 11075.0000 1.0000
42.2200 11237.0000 1.0000
42.2400 11269.0000 1.0000
42.2600 11241.0000 1.0000
42.2800 11424.0000 1.0000
42.3000 11228.0000 1.0000
42.3200 11183.0000 1.0000
42.3400 11242.0000 1.0000
42.3600 11281.0000 1.0000
42.3800 11244.0000 1.0000
42.4000 11399.0000 1.0000
42.4200 11321.0000 1.0000
42.4400 11365.0000 1.0000
42.4600 11645.0000 1.0000
42.4800 11890.0000 1.0000
42.5000 11710.0000 1.0000
42.5200 11280.0000 1.0000
42.5400 11407.0000 1.0000
42.5600 11347.0000 1.0000
42.5800 11596.0000 1.0000
42.6000 11528.0000 1.0000
42.6200 11279.0000 1.0000
42.6400 11373.0000 1.0000
42.6600 11461.0000 1.0000
42.6800 11365.0000 1.0000
42.7000 11136.0000 1.0000
42.7200 11383.0000 1.0000
42.7400 11357.0000 1.0000
42.7600 11356.0000 1.0000
42.7800 11303.0000 1.0000
42.8000 11367.0000 1.0000
42.8200 11220.0000 1.0000
42.8400 11361.0000 1.0000
42.8600 11411.0000 1.0000
42.8800 11392.0000 1.0000
42.9000 11457.0000 1.0000
42.9200 11295.0000 1.0000
42.9400 11608.0000 1.0000
42.9600 11577.0000 1.0000
42.9800 11846.0000 1.0000
43.0000 11895.0000 1.0000
43.0200 12043.0000 1.0000
43.0400 12256.0000 1.0000
43.0600 12730.0000 1.0000
43.0800 13090.0000 1.0000
43.1000 13645.0000 1.0000
43.1200 14517.0000 1.0000
43.1400 14665.0000 1.0000
43.1600 14765.0000 1.0000
43.1800 14436.0000 1.0000
43.2000 14134.0000 1.0000
43.2200 14232.0000 1.0000
43.2400 14136.0000 1.0000
43.2600 13837.0000 1.0000
43.2800 13735.0000 1.0000
43.3000 13326.0000 1.0000
43.3200 13115.0000 1.0000
43.3400 12910.0000 1.0000
43.3600 12717.0000 1.0000
43.3800 12556.0000 1.0000
43.4000 12460.0000 1.0000
43.4200 12206.0000 1.0000
43.4400 12108.0000 1.0000
43.4600 11958.0000 1.0000
43.4800 11808.0000 1.0000
43.5000 12004.0000 1.0000
43.5200 11706.0000 1.0000
43.5400 11680.0000 1.0000
43.5600 11718.0000 1.0000
43.5800 11404.0000 1.0000
43.6000 11446.0000 1.0000
43.6200 11375.0000 1.0000
43.6400 11385.0000 1.0000
43.6600 11398.0000 1.0000
43.6800 11215.0000 1.0000
43.7000 11040.0000 1.0000
43.7200 11262.0000 1.0000
43.7400 11336.0000 1.0000
43.7600 11230.0000 1.0000
43.7800 11385.0000 1.0000
43.8000 11344.0000 1.0000
43.8200 11325.0000 1.0000
43.8400 11231.0000 1.0000
43.8600 11266.0000 1.0000
43.8800 11236.0000 1.0000
43.9000 11318.0000 1.0000
43.9200 11128.0000 1.0000
43.9400 11376.0000 1.0000
43.9600 11398.0000 1.0000
43.9800 11329.0000 1.0000
44.0000 11404.0000 1.0000
44.0200 11090.0000 1.0000
44.0400 11356.0000 1.0000
44.0600 11271.0000 1.0000
44.0800 11305.0000 1.0000
44.1000 11290.0000 1.0000
44.1200 11418.0000 1.0000
44.1400 11237.0000 1.0000
44.1600 11221.0000 1.0000
44.1800 11140.0000 1.0000
44.2000 11397.0000 1.0000
44.2200 11339.0000 1.0000
44.2400 11171.0000 1.0000
44.2600 11420.0000 1.0000
44.2800 11285.0000 1.0000
44.3000 11275.0000 1.0000
44.3200 11330.0000 1.0000
44.3400 11074.0000 1.0000
44.3600 11247.0000 1.0000
44.3800 11116.0000 1.0000
44.4000 11176.0000 1.0000
44.4200 11105.0000 1.0000
44.4400 11183.0000 1.0000
44.4600 11324.0000 1.0000
44.4800 11427.0000 1.0000
44.5000 11288.0000 1.0000
44.5200 11306.0000 1.0000
44.5400 11197.0000 1.0000
44.5600 11065.0000 1.0000
44.5800 11354.0000 1.0000
44.6000 11279.0000 1.0000
44.6200 11322.0000 1.0000
44.6400 11285.0000 1.0000
44.6600 11216.0000 1.0000
44.6800 11238.0000 1.0000
44.7000 11241.0000 1.0000
44.7200 11290.0000 1.0000
44.7400 11201.0000 1.0000
44.7600 11161.0000 1.0000
44.7800 11152.0000 1.0000
44.8000 11159.0000 1.0000
44.8200 11092.0000 1.0000
44.8400 11355.0000 1.0000
44.8600 11282.0000 1.0000
44.8800 11271.0000 1.0000
44.9000 11242.0000 1.0000
44.9200 11226.0000 1.0000
44.9400 11029.0000 1.0000
44.9600 11100.0000 1.0000
44.9800 11182.0000 1.0000
45.0000 11302.0000 1.0000
45.0200 11093.0000 1.0000
45.0400 11155.0000 1.0000
45.0600 11185.0000 1.0000
45.0800 11351.0000 1.0000
45.1000 11302.0000 1.0000
45.1200 11183.0000 1.0000
45.1400 11141.0000 1.0000
45.1600 11141.0000 1.0000
45.1800 11088.0000 1.0000
45.2000 11290.0000 1.0000
45.2200 10986.0000 1.0000
45.2400 11328.0000 1.0000
45.2600 11141.0000 1.0000
45.2800 11260.0000 1.0000
45.3000 11234.0000 1.0000
45.3200 11328.0000 1.0000
45.3400 11295.0000 1.0000
45.3600 11134.0000 1.0000
45.3800 11346.0000 1.0000
45.4000 11312.0000 1.0000
45.4200 11231.0000 1.0000
45.4400 11247.0000 1.0000
45.4600 11267.0000 1.0000
45.4800 11098.0000 1.0000
45.5000 11325.0000 1.0000
45.5200 11228.0000 1.0000
45.5400 11111.0000 1.0000
45.5600 11312.0000 1.0000
45.5800 11296.0000 1.0000
45.6000 11278.0000 1.0000
45.6200 11103.0000 1.0000
45.6400 11193.0000 1.0000
45.6600 11235.0000 1.0000
45.6800 11186.0000 1.0000
45.7000 11123.0000 1.0000
45.7200 11253.0000 1.0000
45.7400 11242.0000 1.0000
45.7600 11234.0000 1.0000
45.7800 11648.0000 1.0000
45.8000 11467.0000 1.0000
45.8200 11689.0000 1.0000
45.8400 11708.0000 1.0000
45.8600 11465.0000 1.0000
45.8800 11183.0000 1.0000
45.9000 11379.0000 1.0000
45.9200 11453.0000 1.0000
45.9400 11455.0000 1.0000
45.9600 11307.0000 1.0000
45.9800 11250.0000 1.0000
46.0000 11372.0000 1.0000
46.0200 11290.0000 1.0000
46.0400 11265.0000 1.0000
46.0600 11356.0000 1.0000
46.0800 11216.0000 1.0000
46.1000 11113.0000 1.0000
46.1200 11287.0000 1.0000
46.1400 11352.0000 1.0000
46.1600 11194.0000 1.0000
46.1800 11508.0000 1.0000
46.2000 11279.0000 1.0000
46.2200 11313.0000 1.0000
46.2400 11269.0000 1.0000
46.2600 11223.0000 1.0000
46.2800 11155.0000 1.0000
46.3000 11146.0000 1.0000
46.3200 11064.0000 1.0000
46.3400 11013.0000 1.0000
46.3600 11221.0000 1.0000
46.3800 11126.0000 1.0000
46.4000 11302.0000 1.0000
46.4200 11222.0000 1.0000
46.4400 11271.0000 1.0000
46.4600 11278.0000 1.0000
46.4800 11295.0000 1.0000
46.5000 11272.0000 1.0000
46.5200 11378.0000 1.0000
46.5400 11406.0000 1.0000
46.5600 11310.0000 1.0000
46.5800 11355.0000 1.0000
46.6000 11428.0000 1.0000
46.6200 11353.0000 1.0000
46.6400 11348.0000 1.0000
46.6600 11134.0000 1.0000
46.6800 11190.0000 1.0000
46.7000 11291.0000 1.0000
46.7200 11181.0000 1.0000
46.7400 11344.0000 1.0000
46.7600 11214.0000 1.0000
46.7800 11223.0000 1.0000
46.8000 11130.0000 1.0000
46.8200 11197.0000 1.0000
46.8400 11444.0000 1.0000
46.8600 11285.0000 1.0000
46.8800 11266.0000 1.0000
46.9000 11187.0000 1.0000
46.9200 11119.0000 1.0000
46.9400 11267.0000 1.0000
46.9600 11299.0000 1.0000
46.9800 11305.0000 1.0000
47.0000 11401.0000 1.0000
47.0200 11205.0000 1.0000
47.0400 11267.0000 1.0000
47.0600 11464.0000 1.0000
47.0800 11301.0000 1.0000
47.1000 11408.0000 1.0000
47.1200 11353.0000 1.0000
47.1400 11146.0000 1.0000
47.1600 11177.0000 1.0000
47.1800 11197.0000 1.0000
47.2000 11088.0000 1.0000
47.2200 11289.0000 1.0000
47.2400 11461.0000 1.0000
47.2600 11297.0000 1.0000
47.2800 11258.0000 1.0000
47.3000 11271.0000 1.0000
47.3200 11318.0000 1.0000
47.3400 11220.0000 1.0000
47.3600 11299.0000 1.0000
47.3800 11388.0000 1.0000
47.4000 11223.0000 1.0000
47.4200 11146.0000 1.0000
47.4400 11190.0000 1.0000
47.4600 11168.0000 1.0000
47.4800 11260.0000 1.0000
47.5000 11227.0000 1.0000
47.5200 11195.0000 1.0000
47.5400 11214.0000 1.0000
47.5600 11209.0000 1.0000
47.5800 11182.0000 1.0000
47.6000 11301.0000 1.0000
47.6200 11226.0000 1.0000
47.6400 11165.0000 1.0000
47.6600 11373.0000 1.0000
47.6800 11218.0000 1.0000
47.7000 11258.0000 1.0000
47.7200 11166.0000 1.0000
47.7400 11137.0000 1.0000
47.7600 11379.0000 1.0000
47.7800 11247.0000 1.0000
47.8000 11050.0000 1.0000
47.8200 11260.0000 1.0000
47.8400 11300.0000 1.0000
47.8600 11060.0000 1.0000
47.8800 11180.0000 1.0000
47.9000 11298.0000 1.0000
47.9200 11039.0000 1.0000
47.9400 11064.0000 1.0000
47.9600 11270.0000 1.0000
47.9800 11393.0000 1.0000
48.0000 11364.0000 1.0000
48.0200 11356.0000 1.0000
48.0400 11369.0000 1.0000
48.0600 11343.0000 1.0000
48.0800 11315.0000 1.0000
48.1000 11207.0000 1.0000
48.1200 11216.0000 1.0000
48.1400 11210.0000 1.0000
48.1600 11170.0000 1.0000
48.1800 11276.0000 1.0000
48.2000 11061.0000 1.0000
48.2200 11286.0000 1.0000
48.2400 11231.0000 1.0000
48.2600 11191.0000 1.0000
48.2800 11245.0000 1.0000
48.3000 11271.0000 1.0000
48.3200 11082.0000 1.0000
48.3400 11225.0000 1.0000
48.3600 11323.0000 1.0000
48.3800 11364.0000 1.0000
48.4000 11341.0000 1.0000
48.4200 11170.0000 1.0000
48.4400 11297.0000 1.0000
48.4600 11217.0000 1.0000
48.4800 11159.0000 1.0000
48.5000 11103.0000 1.0000
48.5200 11319.0000 1.0000
48.5400 11340.0000 1.0000
48.5600 11456.0000 1.0000
48.5800 11059.0000 1.0000
48.6000 11281.0000 1.0000
48.6200 11308.0000 1.0000
48.6400 11252.0000 1.0000
48.6600 11191.0000 1.0000
48.6800 11320.0000 1.0000
48.7000 11229.0000 1.0000
48.7200 11385.0000 1.0000
48.7400 11226.0000 1.0000
48.7600 11141.0000 1.0000
48.7800 11438.0000 1.0000
48.8000 11323.0000 1.0000
48.8200 11055.0000 1.0000
48.8400 11359.0000 1.0000
48.8600 11133.0000 1.0000
48.8800 11189.0000 1.0000
48.9000 11297.0000 1.0000
48.9200 11401.0000 1.0000
48.9400 11356.0000 1.0000
48.9600 11218.0000 1.0000
48.9800 11246.0000 1.0000
49.0000 11150.0000 1.0000
49.0200 11312.0000 1.0000
49.0400 10939.0000 1.0000
49.0600 11163.0000 1.0000
49.0800 11259.0000 1.0000
49.1000 11220.0000 1.0000
49.1200 11257.0000 1.0000
49.1400 11247.0000 1.0000
49.1600 11241.0000 1.0000
49.1800 11349.0000 1.0000
49.2000 11392.0000 1.0000
49.2200 11349.0000 1.0000
49.2400 11322.0000 1.0000
49.2600 11456.0000 1.0000
49.2800 11443.0000 1.0000
49.3000 11521.0000 1.0000
49.3200 11473.0000 1.0000
49.3400 11806.0000 1.0000
49.3600 11724.0000 1.0000
49.3800 11871.0000 1.0000
49.4000 11932.0000 1.0000
49.4200 12311.0000 1.0000
49.4400 12506.0000 1.0000
49.4600 13148.0000 1.0000
49.4800 13276.0000 1.0000
49.5000 13199.0000 1.0000
49.5200 12929.0000 1.0000
49.5400 12719.0000 1.0000
49.5600 12364.0000 1.0000
49.5800 12456.0000 1.0000
49.6000 12527.0000 1.0000
49.6200 12391.0000 1.0000
49.6400 12235.0000 1.0000
49.6600 12168.0000 1.0000
49.6800 11997.0000 1.0000
49.7000 11853.0000 1.0000
49.7200 11515.0000 1.0000
49.7400 11472.0000 1.0000
49.7600 11383.0000 1.0000
49.7800 11434.0000 1.0000
49.8000 11529.0000 1.0000
49.8200 11497.0000 1.0000
49.8400 11441.0000 1.0000
49.8600 11505.0000 1.0000
49.8800 11231.0000 1.0000
49.9000 11264.0000 1.0000
49.9200 11392.0000 1.0000
49.9400 11337.0000 1.0000
49.9600 11442.0000 1.0000
49.9800 11355.0000 1.0000
50.0000 11498.0000 1.0000
50.0200 11473.0000 1.0000
50.0400 11670.0000 1.0000
50.0600 11841.0000 1.0000
50.0800 12475.0000 1.0000
50.1000 12457.0000 1.0000
50.1200 12209.0000 1.0000
50.1400 12616.0000 1.0000
50.1600 13057.0000 1.0000
50.1800 12643.0000 1.0000
50.2000 12004.0000 1.0000
50.2200 12040.0000 1.0000
50.2400 11933.0000 1.0000
50.2600 11825.0000 1.0000
50.2800 12016.0000 1.0000
50.3000 11838.0000 1.0000
50.3200 11646.0000 1.0000
50.3400 11279.0000 1.0000
50.3600 11485.0000 1.0000
50.3800 11074.0000 1.0000
50.4000 11366.0000 1.0000
50.4200 11348.0000 1.0000
50.4400 11244.0000 1.0000
50.4600 11312.0000 1.0000
50.4800 11212.0000 1.0000
50.5000 11203.0000 1.0000
50.5200 11176.0000 1.0000
50.5400 11250.0000 1.0000
50.5600 11220.0000 1.0000
50.5800 11130.0000 1.0000
50.6000 11366.0000 1.0000
50.6200 11149.0000 1.0000
50.6400 11077.0000 1.0000
50.6600 11157.0000 1.0000
50.6800 11197.0000 1.0000
50.7000 11415.0000 1.0000
50.7200 11344.0000 1.0000
50.7400 11294.0000 1.0000
50.7600 11141.0000 1.0000
50.7800 11256.0000 1.0000
50.8000 11205.0000 1.0000
50.8200 11121.0000 1.0000
50.8400 11154.0000 1.0000
50.8600 11111.0000 1.0000
50.8800 11206.0000 1.0000
50.9000 11281.0000 1.0000
50.9200 11196.0000 1.0000
50.9400 11111.0000 1.0000
50.9600 11090.0000 1.0000
50.9800 11206.0000 1.0000
51.0000 11183.0000 1.0000
51.0200 11377.0000 1.0000
51.0400 11106.0000 1.0000
51.0600 11371.0000 1.0000
51.0800 11260.0000 1.0000
51.1000 11218.0000 1.0000
51.1200 11272.0000 1.0000
51.1400 11294.0000 1.0000
51.1600 11291.0000 1.0000
51.1800 11232.0000 1.0000
51.2000 11312.0000 1.0000
51.2200 11283.0000 1.0000
51.2400 11232.0000 1.0000
51.2600 11223.0000 1.0000
51.2800 11216.0000 1.0000
51.3000 11200.0000 1.0000
51.3200 11059.0000 1.0000
51.3400 11254.0000 1.0000
51.3600 11148.0000 1.0000
51.3800 11044.0000 1.0000
51.4000 11131.0000 1.0000
51.4200 11122.0000 1.0000
51.4400 11035.0000 1.0000
51.4600 11149.0000 1.0000
51.4800 11398.0000 1.0000
51.5000 11049.0000 1.0000
51.5200 11170.0000 1.0000
51.5400 11205.0000 1.0000
51.5600 11146.0000 1.0000
51.5800 11107.0000 1.0000
51.6000 11165.0000 1.0000
51.6200 11150.0000 1.0000
51.6400 11067.0000 1.0000
51.6600 11152.0000 1.0000
51.6800 11328.0000 1.0000
51.7000 11242.0000 1.0000
51.7200 11179.0000 1.0000
51.7400 11335.0000 1.0000
51.7600 11213.0000 1.0000
51.7800 11231.0000 1.0000
51.8000 11089.0000 1.0000
51.8200 11341.0000 1.0000
51.8400 11331.0000 1.0000
51.8600 11215.0000 1.0000
51.8800 11296.0000 1.0000
51.9000 11051.0000 1.0000
51.9200 11145.0000 1.0000
51.9400 11212.0000 1.0000
51.9600 11219.0000 1.0000
51.9800 10968.0000 1.0000
52.0000 11201.0000 1.0000
52.0200 11169.0000 1.0000
52.0400 11245.0000 1.0000
52.0600 11189.0000 1.0000
52.0800 11167.0000 1.0000
52.1000 10963.0000 1.0000
52.1200 11216.0000 1.0000
52.1400 11328.0000 1.0000
52.1600 11351.0000 1.0000
52.1800 11216.0000 1.0000
52.2000 11124.0000 1.0000
52.2200 11150.0000 1.0000
52.2400 11087.0000 1.0000
52.2600 11088.0000 1.0000
52.2800 11173.0000 1.0000
52.3000 11095.0000 1.0000
52.3200 11454.0000 1.0000
52.3400 11348.0000 1.0000
52.3600 11244.0000 1.0000
52.3800 11495.0000 1.0000
52.4000 11271.0000 1.0000
52.4200 11299.0000 1.0000
52.4400 11171.0000 1.0000
52.4600 11154.0000 1.0000
52.4800 11368.0000 1.0000
52.5000 11308.0000 1.0000
52.5200 11474.0000 1.0000
52.5400 11523.0000 1.0000
52.5600 11790.0000 1.0000
52.5800 11487.0000 1.0000
52.6000 11510.0000 1.0000
52.6200 11432.0000 1.0000
52.6400 11383.0000 1.0000
52.6600 11328.0000 1.0000
52.6800 11310.0000 1.0000
52.7000 11490.0000 1.0000
52.7200 11385.0000 1.0000
52.7400 11503.0000 1.0000
52.7600 11349.0000 1.0000
52.7800 11421.0000 1.0000
52.8000 11250.0000 1.0000
52.8200 11345.0000 1.0000
52.8400 11108.0000 1.0000
52.8600 11080.0000 1.0000
52.8800 11193.0000 1.0000
52.9000 11269.0000 1.0000
52.9200 11259.0000 1.0000
52.9400 11195.0000 1.0000
52.9600 11018.0000 1.0000
52.9800 11157.0000 1.0000
53.0000 11043.0000 1.0000
53.0200 11216.0000 1.0000
53.0400 11244.0000 1.0000
53.0600 11200.0000 1.0000
53.0800 11402.0000 1.0000
53.1000 11345.0000 1.0000
53.1200 11184.0000 1.0000
53.1400 11254.0000 1.0000
53.1600 11111.0000 1.0000
53.1800 11309.0000 1.0000
53.2000 11208.0000 1.0000
53.2200 11236.0000 1.0000
53.2400 11290.0000 1.0000
53.2600 11348.0000 1.0000
53.2800 11292.0000 1.0000
53.3000 11407.0000 1.0000
53.3200 11341.0000 1.0000
53.3400 11509.0000 1.0000
53.3600 11505.0000 1.0000
53.3800 11453.0000 1.0000
53.4000 11574.0000 1.0000
53.4200 11898.0000 1.0000
53.4400 11967.0000 1.0000
53.4600 11975.0000 1.0000
53.4800 12346.0000 1.0000
53.5000 12637.0000 1.0000
53.5200 12749.0000 1.0000
53.5400 12576.0000 1.0000
53.5600 12502.0000 1.0000
53.5800 12424.0000 1.0000
53.6000 12333.0000 1.0000
53.6200 12193.0000 1.0000
53.6400 12043.0000 1.0000
53.6600 12173.0000 1.0000
53.6800 12123.0000 1.0000
53.7000 12019.0000 1.0000
53.7200 11882.0000 1.0000
53.7400 11789.0000 1.0000
53.7600 11746.0000 1.0000
53.7800 11423.0000 1.0000
53.8000 11435.0000 1.0000
53.8200 11591.0000 1.0000
53.8400 11529.0000 1.0000
53.8600 11506.0000 1.0000
53.8800 11664.0000 1.0000
53.9000 11446.0000 1.0000
53.9200 11718.0000 1.0000
53.9400 11581.0000 1.0000
53.9600 11664.0000 1.0000
53.9800 11983.0000 1.0000
54.0000 12173.0000 1.0000
54.0200 12380.0000 1.0000
54.0400 12788.0000 1.0000
54.0600 13246.0000 1.0000
54.0800 13643.0000 1.0000
54.1000 13488.0000 1.0000
54.1200 13293.0000 1.0000
54.1400 12848.0000 1.0000
54.1600 12713.0000 1.0000
54.1800 12490.0000 1.0000
54.2000 12697.0000 1.0000
54.2200 12504.0000 1.0000
54.2400 12480.0000 1.0000
54.2600 12385.0000 1.0000
54.2800 11914.0000 1.0000
54.3000 11609.0000 1.0000
54.3200 11711.0000 1.0000
54.3400 11508.0000 1.0000
54.3600 11395.0000 1.0000
54.3800 11193.0000 1.0000
54.4000 11440.0000 1.0000
54.4200 11306.0000 1.0000
54.4400 11130.0000 1.0000
54.4600 11190.0000 1.0000
54.4800 11184.0000 1.0000
54.5000 11395.0000 1.0000
54.5200 11284.0000 1.0000
54.5400 11109.0000 1.0000
54.5600 11314.0000 1.0000
54.5800 11197.0000 1.0000
54.6000 11359.0000 1.0000
54.6200 11115.0000 1.0000
54.6400 11026.0000 1.0000
54.6600 11182.0000 1.0000
54.6800 11175.0000 1.0000
54.7000 11280.0000 1.0000
54.7200 11098.0000 1.0000
54.7400 11085.0000 1.0000
54.7600 11226.0000 1.0000
54.7800 11229.0000 1.0000
54.8000 11412.0000 1.0000
54.8200 11393.0000 1.0000
54.8400 11461.0000 1.0000
54.8600 11670.0000 1.0000
54.8800 12329.0000 1.0000
54.9000 12717.0000 1.0000
54.9200 12360.0000 1.0000
54.9400 11499.0000 1.0000
54.9600 11340.0000 1.0000
54.9800 11619.0000 1.0000
55.0000 11346.0000 1.0000
55.0200 11428.0000 1.0000
55.0400 11947.0000 1.0000
55.0600 11995.0000 1.0000
55.0800 11741.0000 1.0000
55.1000 11284.0000 1.0000
55.1200 11301.0000 1.0000
55.1400 11411.0000 1.0000
55.1600 11287.0000 1.0000
55.1800 11184.0000 1.0000
55.2000 11339.0000 1.0000
55.2200 11211.0000 1.0000
55.2400 11208.0000 1.0000
55.2600 11113.0000 1.0000
55.2800 11290.0000 1.0000
55.3000 11177.0000 1.0000
55.3200 11360.0000 1.0000
55.3400 11339.0000 1.0000
55.3600 11124.0000 1.0000
55.3800 11146.0000 1.0000
55.4000 11177.0000 1.0000
55.4200 11218.0000 1.0000
55.4400 11296.0000 1.0000
55.4600 11236.0000 1.0000
55.4800 11234.0000 1.0000
55.5000 11284.0000 1.0000
55.5200 11207.0000 1.0000
55.5400 11199.0000 1.0000
55.5600 11210.0000 1.0000
55.5800 11284.0000 1.0000
55.6000 11177.0000 1.0000
55.6200 11156.0000 1.0000
55.6400 11149.0000 1.0000
55.6600 11253.0000 1.0000
55.6800 11263.0000 1.0000
55.7000 11242.0000 1.0000
55.7200 11228.0000 1.0000
55.7400 11199.0000 1.0000
55.7600 11321.0000 1.0000
55.7800 11220.0000 1.0000
55.8000 11196.0000 1.0000
55.8200 11176.0000 1.0000
55.8400 11162.0000 1.0000
55.8600 11318.0000 1.0000
55.8800 11189.0000 1.0000
55.9000 11438.0000 1.0000
55.9200 11164.0000 1.0000
55.9400 11372.0000 1.0000
55.9600 11233.0000 1.0000
55.9800 11385.0000 1.0000
56.0000 11236.0000 1.0000
56.0200 11164.0000 1.0000
56.0400 11609.0000 1.0000
56.0600 11324.0000 1.0000
56.0800 11064.0000 1.0000
56.1000 11220.0000 1.0000
56.1200 11210.0000 1.0000
56.1400 11370.0000 1.0000
56.1600 11366.0000 1.0000
56.1800 11237.0000 1.0000
56.2000 11146.0000 1.0000
56.2200 11304.0000 1.0000
56.2400 11302.0000 1.0000
56.2600 11192.0000 1.0000
56.2800 11198.0000 1.0000
56.3000 11191.0000 1.0000
56.3200 11342.0000 1.0000
56.3400 11292.0000 1.0000
56.3600 11255.0000 1.0000
56.3800 11117.0000 1.0000
56.4000 11263.0000 1.0000
56.4200 11107.0000 1.0000
56.4400 11322.0000 1.0000
56.4600 11366.0000 1.0000
56.4800 11373.0000 1.0000
56.5000 11161.0000 1.0000
56.5200 10999.0000 1.0000
56.5400 11157.0000 1.0000
56.5600 11354.0000 1.0000
56.5800 11243.0000 1.0000
56.6000 11235.0000 1.0000
56.6200 11199.0000 1.0000
56.6400 11334.0000 1.0000
56.6600 11420.0000 1.0000
56.6800 11400.0000 1.0000
56.7000 11262.0000 1.0000
56.7200 11411.0000 1.0000
56.7400 11486.0000 1.0000
56.7600 11599.0000 1.0000
56.7800 11352.0000 1.0000
56.8000 11449.0000 1.0000
56.8200 11609.0000 1.0000
56.8400 11731.0000 1.0000
56.8600 11852.0000 1.0000
56.8800 11783.0000 1.0000
56.9000 12095.0000 1.0000
56.9200 12056.0000 1.0000
56.9400 12631.0000 1.0000
56.9600 12997.0000 1.0000
56.9800 13656.0000 1.0000
57.0000 14449.0000 1.0000
57.0200 14884.0000 1.0000
57.0400 15321.0000 1.0000
57.0600 15467.0000 1.0000
57.0800 15491.0000 1.0000
57.1000 14763.0000 1.0000
57.1200 14630.0000 1.0000
57.1400 14540.0000 1.0000
57.1600 14306.0000 1.0000
57.1800 14264.0000 1.0000
57.2000 14327.0000 1.0000
57.2200 14075.0000 1.0000
57.2400 13728.0000 1.0000
57.2600 13280.0000 1.0000
57.2800 13041.0000 1.0000
57.3000 12893.0000 1.0000
57.3200 12577.0000 1.0000
57.3400 12349.0000 1.0000
57.3600 12300.0000 1.0000
57.3800 12204.0000 1.0000
57.4000 12305.0000 1.0000
57.4200 12199.0000 1.0000
57.4400 12136.0000 1.0000
57.4600 12002.0000 1.0000
57.4800 12092.0000 1.0000
57.5000 12364.0000 1.0000
57.5200 12182.0000 1.0000
57.5400 12214.0000 1.0000
57.5600 12080.0000 1.0000
57.5800 12061.0000 1.0000
57.6000 12091.0000 1.0000
57.6200 12100.0000 1.0000
57.6400 12141.0000 1.0000
57.6600 11919.0000 1.0000
57.6800 12041.0000 1.0000
57.7000 11834.0000 1.0000
57.7200 11852.0000 1.0000
57.7400 11834.0000 1.0000
57.7600 11621.0000 1.0000
57.7800 11491.0000 1.0000
57.8000 11518.0000 1.0000
57.8200 11332.0000 1.0000
57.8400 11380.0000 1.0000
57.8600 11307.0000 1.0000
57.8800 11485.0000 1.0000
57.9000 11576.0000 1.0000
57.9200 11422.0000 1.0000
57.9400 11166.0000 1.0000
57.9600 11311.0000 1.0000
57.9800 11241.0000 1.0000
58.0000 11333.0000 1.0000
58.0200 11239.0000 1.0000
58.0400 11305.0000 1.0000
58.0600 11373.0000 1.0000
58.0800 11219.0000 1.0000
58.1000 11269.0000 1.0000
58.1200 11191.0000 1.0000
58.1400 11236.0000 1.0000
58.1600 11296.0000 1.0000
58.1800 11287.0000 1.0000
58.2000 11043.0000 1.0000
58.2200 11378.0000 1.0000
58.2400 11202.0000 1.0000
58.2600 11263.0000 1.0000
58.2800 11260.0000 1.0000
58.3000 11136.0000 1.0000
58.3200 11089.0000 1.0000
58.3400 11165.0000 1.0000
58.3600 11323.0000 1.0000
58.3800 11139.0000 1.0000
58.4000 11176.0000 1.0000
58.4200 11189.0000 1.0000
58.4400 11184.0000 1.0000
58.4600 11317.0000 1.0000
58.4800 11407.0000 1.0000
58.5000 11328.0000 1.0000
58.5200 11202.0000 1.0000
58.5400 11274.0000 1.0000
58.5600 11137.0000 1.0000
58.5800 11451.0000 1.0000
58.6000 11126.0000 1.0000
58.6200 11244.0000 1.0000
58.6400 11100.0000 1.0000
58.6600 11182.0000 1.0000
58.6800 11273.0000 1.0000
58.7000 11224.0000 1.0000
58.7200 11186.0000 1.0000
58.7400 11134.0000 1.0000
58.7600 10938.0000 1.0000
58.7800 11197.0000 1.0000
58.8000 11095.0000 1.0000
58.8200 11357.0000 1.0000
58.8400 11210.0000 1.0000
58.8600 11224.0000 1.0000
58.8800 11174.0000 1.0000
58.9000 11216.0000 1.0000
58.9200 11223.0000 1.0000
58.9400 11260.0000 1.0000
58.9600 11332.0000 1.0000
58.9800 11303.0000 1.0000
59.0000 11285.0000 1.0000
59.0200 11182.0000 1.0000
59.0400 11303.0000 1.0000
59.0600 11280.0000 1.0000
59.0800 11267.0000 1.0000
59.1000 11189.0000 1.0000
59.1200 11212.0000 1.0000
59.1400 11185.0000 1.0000
59.1600 11317.0000 1.0000
59.1800 11380.0000 1.0000
59.2000 11298.0000 1.0000
59.2200 11291.0000 1.0000
59.2400 11466.0000 1.0000
59.2600 11171.0000 1.0000
59.2800 11249.0000 1.0000
59.3000 11316.0000 1.0000
59.3200 11229.0000 1.0000
59.3400 11189.0000 1.0000
59.3600 11337.0000 1.0000
59.3800 11335.0000 1.0000
59.4000 11338.0000 1.0000
59.4200 11148.0000 1.0000
59.4400 11194.0000 1.0000
59.4600 10868.0000 1.0000
59.4800 11093.0000 1.0000
59.5000 11435.0000 1.0000
59.5200 11229.0000 1.0000
59.5400 11262.0000 1.0000
59.5600 11131.0000 1.0000
59.5800 11320.0000 1.0000
59.6000 11062.0000 1.0000
59.6200 11292.0000 1.0000
59.6400 11195.0000 1.0000
59.6600 11443.0000 1.0000
59.6800 11487.0000 1.0000
59.7000 11051.0000 1.0000
59.7200 11335.0000 1.0000
59.7400 11329.0000 1.0000
59.7600 11251.0000 1.0000
59.7800 11206.0000 1.0000
59.8000 11157.0000 1.0000
59.8200 11178.0000 1.0000
59.8400 11435.0000 1.0000
59.8600 11366.0000 1.0000
59.8800 11361.0000 1.0000
59.9000 11582.0000 1.0000
59.9200 11670.0000 1.0000
59.9400 12163.0000 1.0000
59.9600 12390.0000 1.0000
59.9800 12653.0000 1.0000
60.0000 12201.0000 1.0000
60.0200 11683.0000 1.0000
60.0400 11601.0000 1.0000
60.0600 11554.0000 1.0000
60.0800 11604.0000 1.0000
60.1000 11486.0000 1.0000
60.1200 11812.0000 1.0000
60.1400 11914.0000 1.0000
60.1600 11817.0000 1.0000
60.1800 11504.0000 1.0000
60.2000 11359.0000 1.0000
60.2200 11273.0000 1.0000
60.2400 11243.0000 1.0000
60.2600 11421.0000 1.0000
60.2800 11233.0000 1.0000
60.3000 11242.0000 1.0000
60.3200 11273.0000 1.0000
60.3400 11325.0000 1.0000
60.3600 11182.0000 1.0000
60.3800 11277.0000 1.0000
60.4000 11481.0000 1.0000
60.4200 11512.0000 1.0000
60.4400 11298.0000 1.0000
60.4600 11217.0000 1.0000
60.4800 11146.0000 1.0000
60.5000 11146.0000 1.0000
60.5200 11191.0000 1.0000
60.5400 11164.0000 1.0000
60.5600 11430.0000 1.0000
60.5800 11246.0000 1.0000
60.6000 11428.0000 1.0000
60.6200 11529.0000 1.0000
60.6400 11501.0000 1.0000
60.6600 11170.0000 1.0000
60.6800 11241.0000 1.0000
60.7000 11286.0000 1.0000
60.7200 11244.0000 1.0000
60.7400 11254.0000 1.0000
60.7600 11161.0000 1.0000
60.7800 11454.0000 1.0000
60.8000 11363.0000 1.0000
60.8200 11387.0000 1.0000
60.8400 11335.0000 1.0000
60.8600 11232.0000 1.0000
60.8800 11334.0000 1.0000
60.9000 11232.0000 1.0000
60.9200 11289.0000 1.0000
60.9400 11358.0000 1.0000
60.9600 11287.0000 1.0000
60.9800 11246.0000 1.0000
61.0000 11292.0000 1.0000
61.0200 11410.0000 1.0000
61.0400 11306.0000 1.0000
61.0600 11150.0000 1.0000
61.0800 11225.0000 1.0000
61.1000 11188.0000 1.0000
61.1200 11517.0000 1.0000
61.1400 11240.0000 1.0000
61.1600 11219.0000 1.0000
61.1800 11298.0000 1.0000
61.2000 11379.0000 1.0000
61.2200 11223.0000 1.0000
61.2400 11303.0000 1.0000
61.2600 11230.0000 1.0000
61.2800 11424.0000 1.0000
61.3000 11387.0000 1.0000
61.3200 11373.0000 1.0000
61.3400 11192.0000 1.0000
61.3600 11126.0000 1.0000
61.3800 11350.0000 1.0000
61.4000 11512.0000 1.0000
61.4200 11233.0000 1.0000
61.4400 11242.0000 1.0000
61.4600 11417.0000 1.0000
61.4800 11199.0000 1.0000
61.5000 11492.0000 1.0000
61.5200 11340.0000 1.0000
61.5400 11290.0000 1.0000
61.5600 11265.0000 1.0000
61.5800 11221.0000 1.0000
61.6000 11427.0000 1.0000
61.6200 11244.0000 1.0000
61.6400 11129.0000 1.0000
61.6600 11264.0000 1.0000
61.6800 11275.0000 1.0000
61.7000 11260.0000 1.0000
61.7200 11254.0000 1.0000
61.7400 11279.0000 1.0000
61.7600 11324.0000 1.0000
61.7800 11285.0000 1.0000
61.8000 11372.0000 1.0000
61.8200 11368.0000 1.0000
61.8400 11302.0000 1.0000
61.8600 11177.0000 1.0000
61.8800 11248.0000 1.0000
61.9000 11513.0000 1.0000
61.9200 11568.0000 1.0000
61.9400 11392.0000 1.0000
61.9600 11265.0000 1.0000
61.9800 11265.0000 1.0000
62.0000 11332.0000 1.0000
62.0200 11229.0000 1.0000
62.0400 11352.0000 1.0000
62.0600 11357.0000 1.0000
62.0800 11447.0000 1.0000
62.1000 11418.0000 1.0000
62.1200 11282.0000 1.0000
62.1400 11502.0000 1.0000
62.1600 11654.0000 1.0000
62.1800 11415.0000 1.0000
62.2000 11560.0000 1.0000
62.2200 11714.0000 1.0000
62.2400 11682.0000 1.0000
62.2600 11597.0000 1.0000
62.2800 11617.0000 1.0000
62.3000 11903.0000 1.0000
62.3200 11873.0000 1.0000
62.3400 11913.0000 1.0000
62.3600 12084.0000 1.0000
62.3800 12394.0000 1.0000
62.4000 12625.0000 1.0000
62.4200 13093.0000 1.0000
62.4400 13374.0000 1.0000
62.4600 13550.0000 1.0000
62.4800 13470.0000 1.0000
62.5000 13438.0000 1.0000
62.5200 13858.0000 1.0000
62.5400 14222.0000 1.0000
62.5600 14903.0000 1.0000
62.5800 15756.0000 1.0000
62.6000 16906.0000 1.0000
62.6200 17568.0000 1.0000
62.6400 18149.0000 1.0000
62.6600 17798.0000 1.0000
62.6800 17101.0000 1.0000
62.7000 16354.0000 1.0000
62.7200 15749.0000 1.0000
62.7400 15515.0000 1.0000
62.7600 15542.0000 1.0000
62.7800 15477.0000 1.0000
62.8000 15633.0000 1.0000
62.8200 15264.0000 1.0000
62.8400 14947.0000 1.0000
62.8600 14585.0000 1.0000
62.8800 14055.0000 1.0000
62.9000 13649.0000 1.0000
62.9200 12943.0000 1.0000
62.9400 12852.0000 1.0000
62.9600 12503.0000 1.0000
62.9800 12452.0000 1.0000
63.0000 12138.0000 1.0000
63.0200 11904.0000 1.0000
63.0400 11914.0000 1.0000
63.0600 11905.0000 1.0000
63.0800 11749.0000 1.0000
63.1000 11714.0000 1.0000
63.1200 11698.0000 1.0000
63.1400 11587.0000 1.0000
63.1600 11498.0000 1.0000
63.1800 11679.0000 1.0000
63.2000 11597.0000 1.0000
63.2200 11484.0000 1.0000
63.2400 11523.0000 1.0000
63.2600 11256.0000 1.0000
63.2800 11357.0000 1.0000
63.3000 11606.0000 1.0000
63.3200 11409.0000 1.0000
63.3400 11502.0000 1.0000
63.3600 11452.0000 1.0000
63.3800 11367.0000 1.0000
63.4000 11389.0000 1.0000
63.4200 11517.0000 1.0000
63.4400 11616.0000 1.0000
63.4600 11545.0000 1.0000
63.4800 11374.0000 1.0000
63.5000 11448.0000 1.0000
63.5200 11489.0000 1.0000
63.5400 11398.0000 1.0000
63.5600 11333.0000 1.0000
63.5800 11232.0000 1.0000
63.6000 11453.0000 1.0000
63.6200 11429.0000 1.0000
63.6400 11278.0000 1.0000
63.6600 11452.0000 1.0000
63.6800 11310.0000 1.0000
63.7000 11410.0000 1.0000
63.7200 11568.0000 1.0000
63.7400 11437.0000 1.0000
63.7600 11419.0000 1.0000
63.7800 11489.0000 1.0000
63.8000 11552.0000 1.0000
63.8200 11331.0000 1.0000
63.8400 11511.0000 1.0000
63.8600 11604.0000 1.0000
63.8800 11565.0000 1.0000
63.9000 11762.0000 1.0000
63.9200 11821.0000 1.0000
63.9400 12164.0000 1.0000
63.9600 12212.0000 1.0000
63.9800 12596.0000 1.0000
64.0000 12799.0000 1.0000
64.0200 12911.0000 1.0000
64.0400 12913.0000 1.0000
64.0600 12579.0000 1.0000
64.0800 12317.0000 1.0000
64.1000 12288.0000 1.0000
64.1200 12071.0000 1.0000
64.1400 12115.0000 1.0000
64.1600 12122.0000 1.0000
64.1800 12165.0000 1.0000
64.2000 12158.0000 1.0000
64.2200 12314.0000 1.0000
64.2400 12058.0000 1.0000
64.2600 11958.0000 1.0000
64.2800 11861.0000 1.0000
64.3000 11501.0000 1.0000
64.3200 11650.0000 1.0000
64.3400 11577.0000 1.0000
64.3600 11472.0000 1.0000
64.3800 11602.0000 1.0000
64.4000 11614.0000 1.0000
64.4200 11282.0000 1.0000
64.4400 11341.0000 1.0000
64.4600 11396.0000 1.0000
64.4800 11435.0000 1.0000
64.5000 11517.0000 1.0000
64.5200 11297.0000 1.0000
64.5400 11416.0000 1.0000
64.5600 11190.0000 1.0000
64.5800 11104.0000 1.0000
64.6000 11168.0000 1.0000
64.6200 11526.0000 1.0000
64.6400 11339.0000 1.0000
64.6600 11433.0000 1.0000
64.6800 11346.0000 1.0000
64.7000 11281.0000 1.0000
64.7200 11454.0000 1.0000
64.7400 11430.0000 1.0000
64.7600 11229.0000 1.0000
64.7800 11186.0000 1.0000
64.8000 11271.0000 1.0000
64.8200 11367.0000 1.0000
64.8400 11361.0000 1.0000
64.8600 11381.0000 1.0000
64.8800 11446.0000 1.0000
64.9000 11415.0000 1.0000
64.9200 11410.0000 1.0000
64.9400 11286.0000 1.0000
64.9600 11365.0000 1.0000
64.9800 11396.0000 1.0000
65.0000 11427.0000 1.0000
65.0200 11201.0000 1.0000
65.0400 11292.0000 1.0000
65.0600 11216.0000 1.0000
65.0800 11396.0000 1.0000
65.1000 11351.0000 1.0000
65.1200 11259.0000 1.0000
65.1400 11230.0000 1.0000
65.1600 11307.0000 1.0000
65.1800 11383.0000 1.0000
65.2000 11272.0000 1.0000
65.2200 11267.0000 1.0000
65.2400 11363.0000 1.0000
65.2600 11336.0000 1.0000
65.2800 11361.0000 1.0000
65.3000 11377.0000 1.0000
65.3200 11259.0000 1.0000
65.3400 11199.0000 1.0000
65.3600 11367.0000 1.0000
65.3800 11270.0000 1.0000
65.4000 11338.0000 1.0000
65.4200 11389.0000 1.0000
65.4400 11220.0000 1.0000
65.4600 11423.0000 1.0000
65.4800 11398.0000 1.0000
65.5000 11154.0000 1.0000
65.5200 11403.0000 1.0000
65.5400 11289.0000 1.0000
65.5600 11311.0000 1.0000
65.5800 11423.0000 1.0000
65.6000 11443.0000 1.0000
65.6200 11499.0000 1.0000
65.6400 11283.0000 1.0000
65.6600 11293.0000 1.0000
65.6800 11377.0000 1.0000
65.7000 11389.0000 1.0000
65.7200 11430.0000 1.0000
65.7400 11308.0000 1.0000
65.7600 11203.0000 1.0000
65.7800 11491.0000 1.0000
65.8000 11455.0000 1.0000
65.8200 11625.0000 1.0000
65.8400 11486.0000 1.0000
65.8600 11536.0000 1.0000
65.8800 11450.0000 1.0000
65.9000 11534.0000 1.0000
65.9200 11411.0000 1.0000
65.9400 11466.0000 1.0000
65.9600 11610.0000 1.0000
65.9800 11582.0000 1.0000
66.0000 11538.0000 1.0000
66.0200 11500.0000 1.0000
66.0400 11422.0000 1.0000
66.0600 11457.0000 1.0000
66.0800 11409.0000 1.0000
66.1000 11476.0000 1.0000
66.1200 11359.0000 1.0000
66.1400 11351.0000 1.0000
66.1600 11300.0000 1.0000
66.1800 11425.0000 1.0000
66.2000 11308.0000 1.0000
66.2200 11169.0000 1.0000
66.2400 11247.0000 1.0000
66.2600 11355.0000 1.0000
66.2800 11584.0000 1.0000
66.3000 11411.0000 1.0000
66.3200 11313.0000 1.0000
66.3400 11570.0000 1.0000
66.3600 11393.0000 1.0000
66.3800 11393.0000 1.0000
66.4000 11518.0000 1.0000
66.4200 11647.0000 1.0000
66.4400 11568.0000 1.0000
66.4600 11559.0000 1.0000
66.4800 11538.0000 1.0000
66.5000 11625.0000 1.0000
66.5200 11565.0000 1.0000
66.5400 11458.0000 1.0000
66.5600 11592.0000 1.0000
66.5800 11648.0000 1.0000
66.6000 11361.0000 1.0000
66.6200 11693.0000 1.0000
66.6400 11590.0000 1.0000
66.6600 11457.0000 1.0000
66.6800 11607.0000 1.0000
66.7000 11456.0000 1.0000
66.7200 11580.0000 1.0000
66.7400 11527.0000 1.0000
66.7600 11356.0000 1.0000
66.7800 11716.0000 1.0000
66.8000 11428.0000 1.0000
66.8200 11618.0000 1.0000
66.8400 11336.0000 1.0000
66.8600 11155.0000 1.0000
66.8800 11251.0000 1.0000
66.9000 11432.0000 1.0000
66.9200 11533.0000 1.0000
66.9400 11299.0000 1.0000
66.9600 11160.0000 1.0000
66.9800 11174.0000 1.0000
67.0000 11442.0000 1.0000
67.0200 11295.0000 1.0000
67.0400 11428.0000 1.0000
67.0600 11415.0000 1.0000
67.0800 11523.0000 1.0000
67.1000 11432.0000 1.0000
67.1200 11374.0000 1.0000
67.1400 11462.0000 1.0000
67.1600 11393.0000 1.0000
67.1800 11295.0000 1.0000
67.2000 11488.0000 1.0000
67.2200 11375.0000 1.0000
67.2400 11334.0000 1.0000
67.2600 11475.0000 1.0000
67.2800 11297.0000 1.0000
67.3000 11308.0000 1.0000
67.3200 11458.0000 1.0000
67.3400 11461.0000 1.0000
67.3600 11330.0000 1.0000
67.3800 11457.0000 1.0000
67.4000 11314.0000 1.0000
67.4200 11365.0000 1.0000
67.4400 11485.0000 1.0000
67.4600 11437.0000 1.0000
67.4800 11478.0000 1.0000
67.5000 11445.0000 1.0000
67.5200 11540.0000 1.0000
67.5400 11292.0000 1.0000
67.5600 11257.0000 1.0000
67.5800 11407.0000 1.0000
67.6000 11361.0000 1.0000
67.6200 11362.0000 1.0000
67.6400 11338.0000 1.0000
67.6600 11465.0000 1.0000
67.6800 11389.0000 1.0000
67.7000 11633.0000 1.0000
67.7200 11636.0000 1.0000
67.7400 11863.0000 1.0000
67.7600 11944.0000 1.0000
67.7800 11755.0000 1.0000
67.8000 11608.0000 1.0000
67.8200 11500.0000 1.0000
67.8400 11407.0000 1.0000
67.8600 11378.0000 1.0000
67.8800 11555.0000 1.0000
67.9000 11411.0000 1.0000
67.9200 11589.0000 1.0000
67.9400 11834.0000 1.0000
67.9600 11689.0000 1.0000
67.9800 11433.0000 1.0000
68.0000 11614.0000 1.0000
68.0200 11534.0000 1.0000
68.0400 11602.0000 1.0000
68.0600 11686.0000 1.0000
68.0800 11677.0000 1.0000
68.1000 12067.0000 1.0000
68.1200 11976.0000 1.0000
68.1400 12024.0000 1.0000
68.1600 12148.0000 1.0000
68.1800 12114.0000 1.0000
68.2000 12065.0000 1.0000
68.2200 11882.0000 1.0000
68.2400 11648.0000 1.0000
68.2600 11743.0000 1.0000
68.2800 12087.0000 1.0000
68.3000 11948.0000 1.0000
68.3200 12088.0000 1.0000
68.3400 12002.0000 1.0000
68.3600 11966.0000 1.0000
68.3800 11960.0000 1.0000
68.4000 11663.0000 1.0000
68.4200 11706.0000 1.0000
68.4400 11660.0000 1.0000
68.4600 11665.0000 1.0000
68.4800 11757.0000 1.0000
68.5000 11850.0000 1.0000
68.5200 11475.0000 1.0000
68.5400 11504.0000 1.0000
68.5600 11439.0000 1.0000
68.5800 11449.0000 1.0000
68.6000 11323.0000 1.0000
68.6200 11390.0000 1.0000
68.6400 11339.0000 1.0000
68.6600 11484.0000 1.0000
68.6800 11498.0000 1.0000
68.7000 11406.0000 1.0000
68.7200 11389.0000 1.0000
68.7400 11183.0000 1.0000
68.7600 11352.0000 1.0000
68.7800 11396.0000 1.0000
68.8000 11348.0000 1.0000
68.8200 11494.0000 1.0000
68.8400 11232.0000 1.0000
68.8600 11264.0000 1.0000
68.8800 11484.0000 1.0000
68.9000 11483.0000 1.0000
68.9200 11390.0000 1.0000
68.9400 11435.0000 1.0000
68.9600 11372.0000 1.0000
68.9800 11495.0000 1.0000
69.0000 11187.0000 1.0000
69.0200 11571.0000 1.0000
69.0400 11430.0000 1.0000
69.0600 11266.0000 1.0000
69.0800 11295.0000 1.0000
69.1000 11459.0000 1.0000
69.1200 11352.0000 1.0000
69.1400 11376.0000 1.0000
69.1600 11389.0000 1.0000
69.1800 11269.0000 1.0000
69.2000 11452.0000 1.0000
69.2200 11402.0000 1.0000
69.2400 11439.0000 1.0000
69.2600 11320.0000 1.0000
69.2800 11216.0000 1.0000
69.3000 11284.0000 1.0000
69.3200 11462.0000 1.0000
69.3400 11540.0000 1.0000
69.3600 11451.0000 1.0000
69.3800 11594.0000 1.0000
69.4000 11307.0000 1.0000
69.4200 11479.0000 1.0000
69.4400 11159.0000 1.0000
69.4600 11394.0000 1.0000
69.4800 11459.0000 1.0000
69.5000 11418.0000 1.0000
69.5200 11464.0000 1.0000
69.5400 11407.0000 1.0000
69.5600 11583.0000 1.0000
69.5800 11552.0000 1.0000
69.6000 11460.0000 1.0000
69.6200 11583.0000 1.0000
69.6400 11456.0000 1.0000
69.6600 11669.0000 1.0000
69.6800 11519.0000 1.0000
69.7000 11685.0000 1.0000
69.7200 11470.0000 1.0000
69.7400 11347.0000 1.0000
69.7600 11497.0000 1.0000
69.7800 11442.0000 1.0000
69.8000 11391.0000 1.0000
69.8200 11523.0000 1.0000
69.8400 11551.0000 1.0000
69.8600 11291.0000 1.0000
69.8800 11376.0000 1.0000
69.9000 11492.0000 1.0000
69.9200 11390.0000 1.0000
69.9400 11389.0000 1.0000
69.9600 11457.0000 1.0000
69.9800 11469.0000 1.0000
70.0000 11564.0000 1.0000
70.0200 11123.0000 1.0000
70.0400 11483.0000 1.0000
70.0600 11505.0000 1.0000
70.0800 11601.0000 1.0000
70.1000 11477.0000 1.0000
70.1200 11437.0000 1.0000
70.1400 11507.0000 1.0000
70.1600 11475.0000 1.0000
70.1800 11484.0000 1.0000
70.2000 11430.0000 1.0000
70.2200 11296.0000 1.0000
70.2400 11377.0000 1.0000
70.2600 11372.0000 1.0000
70.2800 11506.0000 1.0000
70.3000 11419.0000 1.0000
70.3200 11498.0000 1.0000
70.3400 11475.0000 1.0000
70.3600 11350.0000 1.0000
70.3800 11521.0000 1.0000
70.4000 11332.0000 1.0000
70.4200 11162.0000 1.0000
70.4400 11341.0000 1.0000
70.4600 11348.0000 1.0000
70.4800 11255.0000 1.0000
70.5000 11327.0000 1.0000
70.5200 11313.0000 1.0000
70.5400 11194.0000 1.0000
70.5600 11344.0000 1.0000
70.5800 11478.0000 1.0000
70.6000 11456.0000 1.0000
70.6200 11650.0000 1.0000
70.6400 11464.0000 1.0000
70.6600 11416.0000 1.0000
70.6800 11400.0000 1.0000
70.7000 11346.0000 1.0000
70.7200 11378.0000 1.0000
70.7400 11347.0000 1.0000
70.7600 11450.0000 1.0000
70.7800 11423.0000 1.0000
70.8000 11484.0000 1.0000
70.8200 11421.0000 1.0000
70.8400 11100.0000 1.0000
70.8600 11407.0000 1.0000
70.8800 11656.0000 1.0000
70.9000 11379.0000 1.0000
70.9200 11609.0000 1.0000
70.9400 11634.0000 1.0000
70.9600 11680.0000 1.0000
70.9800 11798.0000 1.0000
71.0000 11745.0000 1.0000
71.0200 11750.0000 1.0000
71.0400 11841.0000 1.0000
71.0600 11922.0000 1.0000
71.0800 11660.0000 1.0000
71.1000 11654.0000 1.0000
71.1200 11753.0000 1.0000
71.1400 11641.0000 1.0000
71.1600 11708.0000 1.0000
71.1800 11575.0000 1.0000
71.2000 11781.0000 1.0000
71.2200 11776.0000 1.0000
71.2400 11852.0000 1.0000
71.2600 11650.0000 1.0000
71.2800 11561.0000 1.0000
71.3000 11691.0000 1.0000
71.3200 11701.0000 1.0000
71.3400 11755.0000 1.0000
71.3600 11592.0000 1.0000
71.3800 11758.0000 1.0000
71.4000 11737.0000 1.0000
71.4200 11617.0000 1.0000
71.4400 11471.0000 1.0000
71.4600 11487.0000 1.0000
71.4800 11473.0000 1.0000
71.5000 11385.0000 1.0000
71.5200 11408.0000 1.0000
71.5400 11507.0000 1.0000
71.5600 11453.0000 1.0000
71.5800 11533.0000 1.0000
71.6000 11365.0000 1.0000
71.6200 11480.0000 1.0000
71.6400 11523.0000 1.0000
71.6600 11513.0000 1.0000
71.6800 11419.0000 1.0000
71.7000 11431.0000 1.0000
71.7200 11514.0000 1.0000
71.7400 11405.0000 1.0000
71.7600 11538.0000 1.0000
71.7800 11622.0000 1.0000
71.8000 11489.0000 1.0000
71.8200 11557.0000 1.0000
71.8400 11641.0000 1.0000
71.8600 11613.0000 1.0000
71.8800 11702.0000 1.0000
71.9000 11890.0000 1.0000
71.9200 11960.0000 1.0000
71.9400 11986.0000 1.0000
71.9600 11777.0000 1.0000
71.9800 11943.0000 1.0000
72.0000 11853.0000 1.0000
72.0200 11860.0000 1.0000
72.0400 11788.0000 1.0000
72.0600 11715.0000 1.0000
72.0800 11632.0000 1.0000
72.1000 11660.0000 1.0000
72.1200 11606.0000 1.0000
72.1400 11479.0000 1.0000
72.1600 11696.0000 1.0000
72.1800 11719.0000 1.0000
72.2000 11788.0000 1.0000
72.2200 11815.0000 1.0000
72.2400 11683.0000 1.0000
72.2600 11537.0000 1.0000
72.2800 11620.0000 1.0000
72.3000 11561.0000 1.0000
72.3200 11627.0000 1.0000
72.3400 11473.0000 1.0000
72.3600 11604.0000 1.0000
72.3800 11459.0000 1.0000
72.4000 11573.0000 1.0000
72.4200 11377.0000 1.0000
72.4400 11500.0000 1.0000
72.4600 11520.0000 1.0000
72.4800 11598.0000 1.0000
72.5000 11647.0000 1.0000
72.5200 11522.0000 1.0000
72.5400 11564.0000 1.0000
72.5600 11498.0000 1.0000
72.5800 11667.0000 1.0000
72.6000 11665.0000 1.0000
72.6200 11341.0000 1.0000
72.6400 11351.0000 1.0000
72.6600 11412.0000 1.0000
72.6800 11441.0000 1.0000
72.7000 11471.0000 1.0000
72.7200 11536.0000 1.0000
72.7400 11492.0000 1.0000
72.7600 11463.0000 1.0000
72.7800 11443.0000 1.0000
72.8000 11544.0000 1.0000
72.8200 11458.0000 1.0000
72.8400 11440.0000 1.0000
72.8600 11410.0000 1.0000
72.8800 11361.0000 1.0000
72.9000 11429.0000 1.0000
72.9200 11494.0000 1.0000
72.9400 11388.0000 1.0000
72.9600 11578.0000 1.0000
72.9800 11571.0000 1.0000
73.0000 11363.0000 1.0000
73.0200 11575.0000 1.0000
73.0400 11552.0000 1.0000
73.0600 11379.0000 1.0000
73.0800 11409.0000 1.0000
73.1000 11521.0000 1.0000
73.1200 11529.0000 1.0000
73.1400 11510.0000 1.0000
73.1600 11531.0000 1.0000
73.1800 11546.0000 1.0000
73.2000 11326.0000 1.0000
73.2200 11501.0000 1.0000
73.2400 11618.0000 1.0000
73.2600 11290.0000 1.0000
73.2800 11643.0000 1.0000
73.3000 11520.0000 1.0000
73.3200 11493.0000 1.0000
73.3400 11481.0000 1.0000
73.3600 11376.0000 1.0000
73.3800 11387.0000 1.0000
73.4000 11391.0000 1.0000
73.4200 11610.0000 1.0000
73.4400 11690.0000 1.0000
73.4600 11873.0000 1.0000
73.4800 11782.0000 1.0000
73.5000 11584.0000 1.0000
73.5200 11505.0000 1.0000
73.5400 11615.0000 1.0000
73.5600 11512.0000 1.0000
73.5800 11620.0000 1.0000
73.6000 11537.0000 1.0000
73.6200 11562.0000 1.0000
73.6400 11669.0000 1.0000
73.6600 11657.0000 1.0000
73.6800 11642.0000 1.0000
73.7000 11671.0000 1.0000
73.7200 11427.0000 1.0000
73.7400 11595.0000 1.0000
73.7600 11632.0000 1.0000
73.7800 11667.0000 1.0000
73.8000 11563.0000 1.0000
73.8200 11458.0000 1.0000
73.8400 11607.0000 1.0000
73.8600 11548.0000 1.0000
73.8800 11639.0000 1.0000
73.9000 11471.0000 1.0000
73.9200 11799.0000 1.0000
73.9400 11653.0000 1.0000
73.9600 11620.0000 1.0000
73.9800 11746.0000 1.0000
74.0000 11719.0000 1.0000
74.0200 12105.0000 1.0000
74.0400 12145.0000 1.0000
74.0600 12227.0000 1.0000
74.0800 12254.0000 1.0000
74.1000 12434.0000 1.0000
74.1200 12519.0000 1.0000
74.1400 12510.0000 1.0000
74.1600 12228.0000 1.0000
74.1800 12266.0000 1.0000
74.2000 12243.0000 1.0000
74.2200 12220.0000 1.0000
74.2400 12225.0000 1.0000
74.2600 12279.0000 1.0000
74.2800 12239.0000 1.0000
74.3000 12125.0000 1.0000
74.3200 12083.0000 1.0000
74.3400 12108.0000 1.0000
74.3600 12148.0000 1.0000
74.3800 11939.0000 1.0000
74.4000 11904.0000 1.0000
74.4200 11817.0000 1.0000
74.4400 11640.0000 1.0000
74.4600 11696.0000 1.0000
74.4800 11790.0000 1.0000
74.5000 11618.0000 1.0000
74.5200 11581.0000 1.0000
74.5400 11605.0000 1.0000
74.5600 11641.0000 1.0000
74.5800 11622.0000 1.0000
74.6000 11508.0000 1.0000
74.6200 11392.0000 1.0000
74.6400 11476.0000 1.0000
74.6600 11655.0000 1.0000
74.6800 11562.0000 1.0000
74.7000 11589.0000 1.0000
74.7200 11578.0000 1.0000
74.7400 11567.0000 1.0000
74.7600 11627.0000 1.0000
74.7800 11569.0000 1.0000
74.8000 11564.0000 1.0000
74.8200 11658.0000 1.0000
74.8400 11489.0000 1.0000
74.8600 11606.0000 1.0000
74.8800 11728.0000 1.0000
74.9000 11499.0000 1.0000
74.9200 11578.0000 1.0000
74.9400 11734.0000 1.0000
74.9600 11567.0000 1.0000
74.9800 11658.0000 1.0000
75.0000 11764.0000 1.0000
75.0200 11825.0000 1.0000
75.0400 11689.0000 1.0000
75.0600 11749.0000 1.0000
75.0800 12086.0000 1.0000
75.1000 11995.0000 1.0000
75.1200 11981.0000 1.0000
75.1400 11882.0000 1.0000
75.1600 11663.0000 1.0000
75.1800 11774.0000 1.0000
75.2000 11914.0000 1.0000
75.2200 11799.0000 1.0000
75.2400 11796.0000 1.0000
75.2600 11916.0000 1.0000
75.2800 11712.0000 1.0000
75.3000 11878.0000 1.0000
75.3200 11990.0000 1.0000
75.3400 11779.0000 1.0000
75.3600 11555.0000 1.0000
75.3800 11637.0000 1.0000
75.4000 11779.0000 1.0000
75.4200 11876.0000 1.0000
75.4400 11983.0000 1.0000
75.4600 12101.0000 1.0000
75.4800 11855.0000 1.0000
75.5000 11846.0000 1.0000
75.5200 11795.0000 1.0000
75.5400 11644.0000 1.0000
75.5600 11852.0000 1.0000
75.5800 11617.0000 1.0000
75.6000 11795.0000 1.0000
75.6200 11731.0000 1.0000
75.6400 11842.0000 1.0000
75.6600 11931.0000 1.0000
75.6800 11840.0000 1.0000
75.7000 11819.0000 1.0000
75.7200 11765.0000 1.0000
75.7400 11629.0000 1.0000
75.7600 11734.0000 1.0000
75.7800 11773.0000 1.0000
75.8000 11378.0000 1.0000
75.8200 11634.0000 1.0000
75.8400 11613.0000 1.0000
75.8600 11597.0000 1.0000
75.8800 11649.0000 1.0000
75.9000 11674.0000 1.0000
75.9200 11698.0000 1.0000
75.9400 11687.0000 1.0000
75.9600 11681.0000 1.0000
75.9800 11494.0000 1.0000
76.0000 11509.0000 1.0000
76.0200 11544.0000 1.0000
76.0400 11697.0000 1.0000
76.0600 11555.0000 1.0000
76.0800 11603.0000 1.0000
76.1000 11532.0000 1.0000
76.1200 11425.0000 1.0000
76.1400 11436.0000 1.0000
76.1600 11632.0000 1.0000
76.1800 11479.0000 1.0000
76.2000 11502.0000 1.0000
76.2200 11644.0000 1.0000
76.2400 11517.0000 1.0000
76.2600 11670.0000 1.0000
76.2800 11602.0000 1.0000
76.3000 11449.0000 1.0000
76.3200 11453.0000 1.0000
76.3400 11749.0000 1.0000
76.3600 11437.0000 1.0000
76.3800 11377.0000 1.0000
76.4000 11583.0000 1.0000
76.4200 11604.0000 1.0000
76.4400 11490.0000 1.0000
76.4600 11485.0000 1.0000
76.4800 11442.0000 1.0000
76.5000 11598.0000 1.0000
76.5200 11626.0000 1.0000
76.5400 11515.0000 1.0000
76.5600 11621.0000 1.0000
76.5800 11478.0000 1.0000
76.6000 11473.0000 1.0000
76.6200 11582.0000 1.0000
76.6400 11490.0000 1.0000
76.6600 11483.0000 1.0000
76.6800 11322.0000 1.0000
76.7000 11388.0000 1.0000
76.7200 11496.0000 1.0000
76.7400 11604.0000 1.0000
76.7600 11655.0000 1.0000
76.7800 11677.0000 1.0000
76.8000 11941.0000 1.0000
76.8200 11531.0000 1.0000
76.8400 11632.0000 1.0000
76.8600 11473.0000 1.0000
76.8800 11530.0000 1.0000
76.9000 11635.0000 1.0000
76.9200 11588.0000 1.0000
76.9400 11636.0000 1.0000
76.9600 11551.0000 1.0000
76.9800 11408.0000 1.0000
77.0000 11682.0000 1.0000
77.0200 11538.0000 1.0000
77.0400 11703.0000 1.0000
77.0600 11492.0000 1.0000
77.0800 11697.0000 1.0000
77.1000 11527.0000 1.0000
77.1200 11413.0000 1.0000
77.1400 11589.0000 1.0000
77.1600 11749.0000 1.0000
77.1800 11737.0000 1.0000
77.2000 11513.0000 1.0000
77.2200 11573.0000 1.0000
77.2400 11650.0000 1.0000
77.2600 11572.0000 1.0000
77.2800 11679.0000 1.0000
77.3000 11582.0000 1.0000
77.3200 11534.0000 1.0000
77.3400 11551.0000 1.0000
77.3600 11441.0000 1.0000
77.3800 11699.0000 1.0000
77.4000 11363.0000 1.0000
77.4200 11457.0000 1.0000
77.4400 11626.0000 1.0000
77.4600 11524.0000 1.0000
77.4800 11667.0000 1.0000
77.5000 11555.0000 1.0000
77.5200 11621.0000 1.0000
77.5400 11572.0000 1.0000
77.5600 11699.0000 1.0000
77.5800 11723.0000 1.0000
77.6000 11549.0000 1.0000
77.6200 11565.0000 1.0000
77.6400 11534.0000 1.0000
77.6600 11850.0000 1.0000
77.6800 11836.0000 1.0000
77.7000 11755.0000 1.0000
77.7200 11727.0000 1.0000
77.7400 11680.0000 1.0000
77.7600 11724.0000 1.0000
77.7800 11580.0000 1.0000
77.8000 11494.0000 1.0000
77.8200 11566.0000 1.0000
77.8400 11684.0000 1.0000
77.8600 11615.0000 1.0000
77.8800 11746.0000 1.0000
77.9000 11573.0000 1.0000
77.9200 11577.0000 1.0000
77.9400 11662.0000 1.0000
77.9600 11777.0000 1.0000
77.9800 11753.0000 1.0000
78.0000 11663.0000 1.0000
78.0200 11764.0000 1.0000
78.0400 11587.0000 1.0000
78.0600 11622.0000 1.0000
78.0800 11568.0000 1.0000
78.1000 11492.0000 1.0000
78.1200 11608.0000 1.0000
78.1400 11275.0000 1.0000
78.1600 11397.0000 1.0000
78.1800 11521.0000 1.0000
78.2000 11437.0000 1.0000
78.2200 11402.0000 1.0000
78.2400 11495.0000 1.0000
78.2600 11483.0000 1.0000
78.2800 11480.0000 1.0000
78.3000 11412.0000 1.0000
78.3200 11413.0000 1.0000
78.3400 11390.0000 1.0000
78.3600 11421.0000 1.0000
78.3800 11307.0000 1.0000
78.4000 11521.0000 1.0000
78.4200 11456.0000 1.0000
78.4400 11619.0000 1.0000
78.4600 11494.0000 1.0000
78.4800 11428.0000 1.0000
78.5000 11560.0000 1.0000
78.5200 11612.0000 1.0000
78.5400 11616.0000 1.0000
78.5600 11339.0000 1.0000
78.5800 11602.0000 1.0000
78.6000 11717.0000 1.0000
78.6200 11604.0000 1.0000
78.6400 11626.0000 1.0000
78.6600 11479.0000 1.0000
78.6800 11745.0000 1.0000
78.7000 11512.0000 1.0000
78.7200 11703.0000 1.0000
78.7400 11756.0000 1.0000
78.7600 11571.0000 1.0000
78.7800 11354.0000 1.0000
78.8000 11574.0000 1.0000
78.8200 11471.0000 1.0000
78.8400 11517.0000 1.0000
78.8600 11691.0000 1.0000
78.8800 11668.0000 1.0000
78.9000 11542.0000 1.0000
78.9200 11534.0000 1.0000
78.9400 11650.0000 1.0000
78.9600 11591.0000 1.0000
78.9800 11658.0000 1.0000
79.0000 11980.0000 1.0000
79.0200 11877.0000 1.0000
79.0400 11825.0000 1.0000
79.0600 11783.0000 1.0000
79.0800 11885.0000 1.0000
79.1000 11767.0000 1.0000
79.1200 11748.0000 1.0000
79.1400 11573.0000 1.0000
79.1600 11649.0000 1.0000
79.1800 11756.0000 1.0000
79.2000 11590.0000 1.0000
79.2200 11905.0000 1.0000
79.2400 11636.0000 1.0000
79.2600 11925.0000 1.0000
79.2800 11807.0000 1.0000
79.3000 11567.0000 1.0000
79.3200 11614.0000 1.0000
79.3400 11714.0000 1.0000
79.3600 11760.0000 1.0000
79.3800 11686.0000 1.0000
79.4000 11615.0000 1.0000
79.4200 11715.0000 1.0000
79.4400 11762.0000 1.0000
79.4600 11620.0000 1.0000
79.4800 11703.0000 1.0000
79.5000 11478.0000 1.0000
79.5200 11590.0000 1.0000
79.5400 11533.0000 1.0000
79.5600 11606.0000 1.0000
79.5800 11596.0000 1.0000
79.6000 11533.0000 1.0000
79.6200 11710.0000 1.0000
79.6400 11530.0000 1.0000
79.6600 11456.0000 1.0000
79.6800 11648.0000 1.0000
79.7000 11714.0000 1.0000
79.7200 11535.0000 1.0000
79.7400 11594.0000 1.0000
79.7600 11585.0000 1.0000
79.7800 11446.0000 1.0000
79.8000 11678.0000 1.0000
79.8200 11796.0000 1.0000
79.8400 11632.0000 1.0000
79.8600 11776.0000 1.0000
79.8800 11839.0000 1.0000
79.9000 11939.0000 1.0000
79.9200 11747.0000 1.0000
79.9400 11675.0000 1.0000
79.9600 11610.0000 1.0000
79.9800 11623.0000 1.0000
80.0000 11574.0000 1.0000
80.0200 11621.0000 1.0000
80.0400 11872.0000 1.0000
80.0600 11879.0000 1.0000
80.0800 11860.0000 1.0000
80.1000 11739.0000 1.0000
80.1200 11900.0000 1.0000
80.1400 11666.0000 1.0000
80.1600 11666.0000 1.0000
80.1800 11599.0000 1.0000
80.2000 11679.0000 1.0000
80.2200 11546.0000 1.0000
80.2400 11567.0000 1.0000
80.2600 11657.0000 1.0000
80.2800 11742.0000 1.0000
80.3000 11593.0000 1.0000
80.3200 11648.0000 1.0000
80.3400 11575.0000 1.0000
80.3600 11682.0000 1.0000
80.3800 11650.0000 1.0000
80.4000 11660.0000 1.0000
80.4200 11583.0000 1.0000
80.4400 11672.0000 1.0000
80.4600 11620.0000 1.0000
80.4800 11601.0000 1.0000
80.5000 11744.0000 1.0000
80.5200 11664.0000 1.0000
80.5400 11683.0000 1.0000
80.5600 11588.0000 1.0000
80.5800 11737.0000 1.0000
80.6000 11630.0000 1.0000
80.6200 11851.0000 1.0000
80.6400 11732.0000 1.0000
80.6600 11607.0000 1.0000
80.6800 11824.0000 1.0000
80.7000 11893.0000 1.0000
80.7200 11941.0000 1.0000
80.7400 11843.0000 1.0000
80.7600 11825.0000 1.0000
80.7800 11715.0000 1.0000
80.8000 11619.0000 1.0000
80.8200 11725.0000 1.0000
80.8400 11627.0000 1.0000
80.8600 11633.0000 1.0000
80.8800 11643.0000 1.0000
80.9000 11558.0000 1.0000
80.9200 11562.0000 1.0000
80.9400 11573.0000 1.0000
80.9600 11732.0000 1.0000
80.9800 11764.0000 1.0000
81.0000 11886.0000 1.0000
81.0200 11745.0000 1.0000
81.0400 11524.0000 1.0000
81.0600 11440.0000 1.0000
81.0800 11642.0000 1.0000
81.1000 11687.0000 1.0000
81.1200 11681.0000 1.0000
81.1400 11859.0000 1.0000
81.1600 12138.0000 1.0000
81.1800 12022.0000 1.0000
81.2000 11687.0000 1.0000
81.2200 11861.0000 1.0000
81.2400 11735.0000 1.0000
81.2600 11660.0000 1.0000
81.2800 11798.0000 1.0000
81.3000 11738.0000 1.0000
81.3200 11788.0000 1.0000
81.3400 11680.0000 1.0000
81.3600 11654.0000 1.0000
81.3800 11753.0000 1.0000
81.4000 11795.0000 1.0000
81.4200 11805.0000 1.0000
81.4400 11789.0000 1.0000
81.4600 11792.0000 1.0000
81.4800 12291.0000 1.0000
81.5000 12215.0000 1.0000
81.5200 12037.0000 1.0000
81.5400 11675.0000 1.0000
81.5600 11829.0000 1.0000
81.5800 11767.0000 1.0000
81.6000 11733.0000 1.0000
81.6200 11708.0000 1.0000
81.6400 11591.0000 1.0000
81.6600 11659.0000 1.0000
81.6800 11678.0000 1.0000
81.7000 11639.0000 1.0000
81.7200 11908.0000 1.0000
81.7400 11967.0000 1.0000
81.7600 11688.0000 1.0000
81.7800 11819.0000 1.0000
81.8000 11621.0000 1.0000
81.8200 11633.0000 1.0000
81.8400 11642.0000 1.0000
81.8600 11525.0000 1.0000
81.8800 11716.0000 1.0000
81.9000 11810.0000 1.0000
81.9200 11485.0000 1.0000
81.9400 11583.0000 1.0000
81.9600 11647.0000 1.0000
81.9800 11586.0000 1.0000
82.0000 11700.0000 1.0000
82.0200 11635.0000 1.0000
82.0400 11665.0000 1.0000
82.0600 11616.0000 1.0000
82.0800 11545.0000 1.0000
82.1000 11690.0000 1.0000
82.1200 11711.0000 1.0000
82.1400 11560.0000 1.0000
82.1600 11678.0000 1.0000
82.1800 11714.0000 1.0000
82.2000 11611.0000 1.0000
82.2200 11649.0000 1.0000
82.2400 11814.0000 1.0000
82.2600 11592.0000 1.0000
82.2800 11612.0000 1.0000
82.3000 11605.0000 1.0000
82.3200 11577.0000 1.0000
82.3400 11619.0000 1.0000
82.3600 11422.0000 1.0000
82.3800 11548.0000 1.0000
82.4000 11565.0000 1.0000
82.4200 11828.0000 1.0000
82.4400 11565.0000 1.0000
82.4600 11459.0000 1.0000
82.4800 11732.0000 1.0000
82.5000 11388.0000 1.0000
82.5200 11636.0000 1.0000
82.5400 11651.0000 1.0000
82.5600 11824.0000 1.0000
82.5800 11656.0000 1.0000
82.6000 11757.0000 1.0000
82.6200 11676.0000 1.0000
82.6400 11568.0000 1.0000
82.6600 11711.0000 1.0000
82.6800 11634.0000 1.0000
82.7000 11595.0000 1.0000
82.7200 11474.0000 1.0000
82.7400 11458.0000 1.0000
82.7600 11632.0000 1.0000
82.7800 11471.0000 1.0000
82.8000 11739.0000 1.0000
82.8200 11601.0000 1.0000
82.8400 11635.0000 1.0000
82.8600 11601.0000 1.0000
82.8800 11680.0000 1.0000
82.9000 11701.0000 1.0000
82.9200 11716.0000 1.0000
82.9400 11872.0000 1.0000
82.9600 11642.0000 1.0000
82.9800 11741.0000 1.0000
83.0000 11754.0000 1.0000
83.0200 11725.0000 1.0000
83.0400 11650.0000 1.0000
83.0600 11342.0000 1.0000
83.0800 11530.0000 1.0000
83.1000 11695.0000 1.0000
83.1200 11759.0000 1.0000
83.1400 11709.0000 1.0000
83.1600 11777.0000 1.0000
83.1800 11772.0000 1.0000
83.2000 11665.0000 1.0000
83.2200 11503.0000 1.0000
83.2400 11828.0000 1.0000
83.2600 11634.0000 1.0000
83.2800 11710.0000 1.0000
83.3000 11666.0000 1.0000
83.3200 11682.0000 1.0000
83.3400 11747.0000 1.0000
83.3600 11536.0000 1.0000
83.3800 11633.0000 1.0000
83.4000 11628.0000 1.0000
83.4200 11564.0000 1.0000
83.4400 11523.0000 1.0000
83.4600 11711.0000 1.0000
83.4800 11626.0000 1.0000
83.5000 11517.0000 1.0000
83.5200 11481.0000 1.0000
83.5400 11668.0000 1.0000
83.5600 11589.0000 1.0000
83.5800 11585.0000 1.0000
83.6000 11535.0000 1.0000
83.6200 11575.0000 1.0000
83.6400 11614.0000 1.0000
83.6600 11504.0000 1.0000
83.6800 11655.0000 1.0000
83.7000 11465.0000 1.0000
83.7200 11555.0000 1.0000
83.7400 11801.0000 1.0000
83.7600 11775.0000 1.0000
83.7800 11499.0000 1.0000
83.8000 11644.0000 1.0000
83.8200 11714.0000 1.0000
83.8400 11847.0000 1.0000
83.8600 11808.0000 1.0000
83.8800 11705.0000 1.0000
83.9000 11638.0000 1.0000
83.9200 11772.0000 1.0000
83.9400 11795.0000 1.0000
83.9600 11623.0000 1.0000
83.9800 11614.0000 1.0000
84.0000 11693.0000 1.0000
84.0200 11594.0000 1.0000
84.0400 11716.0000 1.0000
84.0600 11690.0000 1.0000
84.0800 11651.0000 1.0000
84.1000 11677.0000 1.0000
84.1200 11881.0000 1.0000
84.1400 11649.0000 1.0000
84.1600 11682.0000 1.0000
84.1800 11616.0000 1.0000
84.2000 11626.0000 1.0000
84.2200 11626.0000 1.0000
84.2400 11594.0000 1.0000
84.2600 11550.0000 1.0000
84.2800 11639.0000 1.0000
84.3000 11968.0000 1.0000
84.3200 11698.0000 1.0000
84.3400 11754.0000 1.0000
84.3600 11758.0000 1.0000
84.3800 11667.0000 1.0000
84.4000 11644.0000 1.0000
84.4200 11809.0000 1.0000
84.4400 11708.0000 1.0000
84.4600 11597.0000 1.0000
84.4800 11732.0000 1.0000
84.5000 11573.0000 1.0000
84.5200 11689.0000 1.0000
84.5400 11500.0000 1.0000
84.5600 11640.0000 1.0000
84.5800 11804.0000 1.0000
84.6000 11788.0000 1.0000
84.6200 11907.0000 1.0000
84.6400 11843.0000 1.0000
84.6600 11702.0000 1.0000
84.6800 11595.0000 1.0000
84.7000 11604.0000 1.0000
84.7200 11795.0000 1.0000
84.7400 11755.0000 1.0000
84.7600 11600.0000 1.0000
84.7800 11790.0000 1.0000
84.8000 11615.0000 1.0000
84.8200 11909.0000 1.0000
84.8400 11750.0000 1.0000
84.8600 11885.0000 1.0000
84.8800 11734.0000 1.0000
84.9000 11877.0000 1.0000
84.9200 12030.0000 1.0000
84.9400 12022.0000 1.0000
84.9600 12101.0000 1.0000
84.9800 11934.0000 1.0000
85.0000 11988.0000 1.0000
85.0200 11915.0000 1.0000
85.0400 11844.0000 1.0000
85.0600 12040.0000 1.0000
85.0800 11853.0000 1.0000
85.1000 11815.0000 1.0000
85.1200 11597.0000 1.0000
85.1400 11722.0000 1.0000
85.1600 11965.0000 1.0000
85.1800 11743.0000 1.0000
85.2000 11893.0000 1.0000
85.2200 11830.0000 1.0000
85.2400 11710.0000 1.0000
85.2600 11685.0000 1.0000
85.2800 11568.0000 1.0000
85.3000 11796.0000 1.0000
85.3200 11625.0000 1.0000
85.3400 11631.0000 1.0000
85.3600 11701.0000 1.0000
85.3800 11602.0000 1.0000
85.4000 11711.0000 1.0000
85.4200 11554.0000 1.0000
85.4400 11571.0000 1.0000
85.4600 11618.0000 1.0000
85.4800 11856.0000 1.0000
85.5000 11599.0000 1.0000
85.5200 11654.0000 1.0000
85.5400 11772.0000 1.0000
85.5600 11583.0000 1.0000
85.5800 11805.0000 1.0000
85.6000 11673.0000 1.0000
85.6200 11763.0000 1.0000
85.6400 11706.0000 1.0000
85.6600 11476.0000 1.0000
85.6800 11670.0000 1.0000
85.7000 11667.0000 1.0000
85.7200 11650.0000 1.0000
85.7400 11674.0000 1.0000
85.7600 11782.0000 1.0000
85.7800 11603.0000 1.0000
85.8000 11671.0000 1.0000
85.8200 11764.0000 1.0000
85.8400 11681.0000 1.0000
85.8600 11635.0000 1.0000
85.8800 11717.0000 1.0000
85.9000 11615.0000 1.0000
85.9200 11659.0000 1.0000
85.9400 11796.0000 1.0000
85.9600 11717.0000 1.0000
85.9800 11709.0000 1.0000
86.0000 11731.0000 1.0000
86.0200 11720.0000 1.0000
86.0400 11679.0000 1.0000
86.0600 11698.0000 1.0000
86.0800 11420.0000 1.0000
86.1000 11544.0000 1.0000
86.1200 11707.0000 1.0000
86.1400 11548.0000 1.0000
86.1600 11722.0000 1.0000
86.1800 11875.0000 1.0000
86.2000 11642.0000 1.0000
86.2200 11810.0000 1.0000
86.2400 11761.0000 1.0000
86.2600 11602.0000 1.0000
86.2800 11826.0000 1.0000
86.3000 11563.0000 1.0000
86.3200 11708.0000 1.0000
86.3400 11830.0000 1.0000
86.3600 11859.0000 1.0000
86.3800 11504.0000 1.0000
86.4000 11847.0000 1.0000
86.4200 11768.0000 1.0000
86.4400 11719.0000 1.0000
86.4600 11628.0000 1.0000
86.4800 11792.0000 1.0000
86.5000 11698.0000 1.0000
86.5200 11803.0000 1.0000
86.5400 11668.0000 1.0000
86.5600 11571.0000 1.0000
86.5800 11629.0000 1.0000
86.6000 11608.0000 1.0000
86.6200 11553.0000 1.0000
86.6400 11614.0000 1.0000
86.6600 11698.0000 1.0000
86.6800 11828.0000 1.0000
86.7000 11807.0000 1.0000
86.7200 11860.0000 1.0000
86.7400 11994.0000 1.0000
86.7600 11873.0000 1.0000
86.7800 11878.0000 1.0000
86.8000 11629.0000 1.0000
86.8200 11938.0000 1.0000
86.8400 11972.0000 1.0000
86.8600 12089.0000 1.0000
86.8800 12010.0000 1.0000
86.9000 11987.0000 1.0000
86.9200 11960.0000 1.0000
86.9400 11912.0000 1.0000
86.9600 12118.0000 1.0000
86.9800 11890.0000 1.0000
87.0000 11978.0000 1.0000
87.0200 12103.0000 1.0000
87.0400 12018.0000 1.0000
87.0600 11880.0000 1.0000
87.0800 11958.0000 1.0000
87.1000 11846.0000 1.0000
87.1200 11853.0000 1.0000
87.1400 11893.0000 1.0000
87.1600 12067.0000 1.0000
87.1800 11804.0000 1.0000
87.2000 11947.0000 1.0000
87.2200 11929.0000 1.0000
87.2400 11769.0000 1.0000
87.2600 11751.0000 1.0000
87.2800 11842.0000 1.0000
87.3000 11707.0000 1.0000
87.3200 11639.0000 1.0000
87.3400 11750.0000 1.0000
87.3600 11729.0000 1.0000
87.3800 11675.0000 1.0000
87.4000 11837.0000 1.0000
87.4200 11887.0000 1.0000
87.4400 11815.0000 1.0000
87.4600 11734.0000 1.0000
87.4800 11718.0000 1.0000
87.5000 11869.0000 1.0000
87.5200 11716.0000 1.0000
87.5400 11626.0000 1.0000
87.5600 11640.0000 1.0000
87.5800 11674.0000 1.0000
87.6000 11598.0000 1.0000
87.6200 11637.0000 1.0000
87.6400 11744.0000 1.0000
87.6600 11537.0000 1.0000
87.6800 11579.0000 1.0000
87.7000 11536.0000 1.0000
87.7200 11788.0000 1.0000
87.7400 11564.0000 1.0000
87.7600 11638.0000 1.0000
87.7800 11596.0000 1.0000
87.8000 11756.0000 1.0000
87.8200 11669.0000 1.0000
87.8400 11827.0000 1.0000
87.8600 11813.0000 1.0000
87.8800 11616.0000 1.0000
87.9000 11697.0000 1.0000
87.9200 11660.0000 1.0000
87.9400 11761.0000 1.0000
87.9600 11726.0000 1.0000
87.9800 11767.0000 1.0000
88.0000 11723.0000 1.0000
88.0200 11671.0000 1.0000
88.0400 11735.0000 1.0000
88.0600 11800.0000 1.0000
88.0800 11531.0000 1.0000
88.1000 11599.0000 1.0000
88.1200 11771.0000 1.0000
88.1400 11648.0000 1.0000
88.1600 11888.0000 1.0000
88.1800 11864.0000 1.0000
88.2000 11717.0000 1.0000
88.2200 11617.0000 1.0000
88.2400 11873.0000 1.0000
88.2600 11880.0000 1.0000
88.2800 11630.0000 1.0000
88.3000 11873.0000 1.0000
88.3200 11603.0000 1.0000
88.3400 11980.0000 1.0000
88.3600 11968.0000 1.0000
88.3800 11744.0000 1.0000
88.4000 11864.0000 1.0000
88.4200 11724.0000 1.0000
88.4400 11919.0000 1.0000
88.4600 11795.0000 1.0000
88.4800 11949.0000 1.0000
88.5000 11793.0000 1.0000
88.5200 12014.0000 1.0000
88.5400 12023.0000 1.0000
88.5600 12035.0000 1.0000
88.5800 12016.0000 1.0000
88.6000 12034.0000 1.0000
88.6200 11845.0000 1.0000
88.6400 11996.0000 1.0000
88.6600 11863.0000 1.0000
88.6800 11838.0000 1.0000
88.7000 11758.0000 1.0000
88.7200 11892.0000 1.0000
88.7400 11769.0000 1.0000
88.7600 11694.0000 1.0000
88.7800 11825.0000 1.0000
88.8000 11887.0000 1.0000
88.8200 11898.0000 1.0000
88.8400 12022.0000 1.0000
88.8600 11973.0000 1.0000
88.8800 11940.0000 1.0000
88.9000 11755.0000 1.0000
88.9200 11910.0000 1.0000
88.9400 11738.0000 1.0000
88.9600 11790.0000 1.0000
88.9800 11699.0000 1.0000
89.0000 11759.0000 1.0000
89.0200 11996.0000 1.0000
89.0400 11810.0000 1.0000
89.0600 11795.0000 1.0000
89.0800 11765.0000 1.0000
89.1000 11795.0000 1.0000
89.1200 11849.0000 1.0000
89.1400 11589.0000 1.0000
89.1600 11608.0000 1.0000
89.1800 11791.0000 1.0000
89.2000 11754.0000 1.0000
89.2200 11656.0000 1.0000
89.2400 11760.0000 1.0000
89.2600 11828.0000 1.0000
89.2800 11734.0000 1.0000
89.3000 11842.0000 1.0000
89.3200 11871.0000 1.0000
89.3400 11902.0000 1.0000
89.3600 11619.0000 1.0000
89.3800 11667.0000 1.0000
89.4000 11772.0000 1.0000
89.4200 11777.0000 1.0000
89.4400 11862.0000 1.0000
89.4600 11602.0000 1.0000
89.4800 11811.0000 1.0000
89.5000 11991.0000 1.0000
89.5200 11833.0000 1.0000
89.5400 12023.0000 1.0000
89.5600 11908.0000 1.0000
89.5800 11866.0000 1.0000
89.6000 12143.0000 1.0000
89.6200 12230.0000 1.0000
89.6400 12165.0000 1.0000
89.6600 12361.0000 1.0000
89.6800 12604.0000 1.0000
89.7000 12646.0000 1.0000
89.7200 12805.0000 1.0000
89.7400 13094.0000 1.0000
89.7600 12879.0000 1.0000
89.7800 12894.0000 1.0000
89.8000 13076.0000 1.0000
89.8200 12898.0000 1.0000
89.8400 12938.0000 1.0000
89.8600 12842.0000 1.0000
89.8800 12521.0000 1.0000
89.9000 12468.0000 1.0000
89.9200 12698.0000 1.0000
89.9400 12589.0000 1.0000
89.9600 12455.0000 1.0000
89.9800 12479.0000 1.0000
90.0000 12544.0000 1.0000
*RAS_INT_END
*RAS_TEMPERATURE_START
*RAS_TEMPERATURE_END
*RAS_DATA_END
