*RAS_DATA_START
*RAS_HEADER_START
*DISP_FMT_X "%.2f"
*DISP_FMT_Y "%.0f"
*DISP_FULLSCALE "42681.0000000000"
*DISP_LINE_COLOR "255.0000000000"
*DISP_LINE_STYLE "0.0000000000"
*DISP_LINE_WIDTH "0.2500000000"
*DISP_NOTE "測定データ-3"
*DISP_OFFSET_Y "0.0000000000"
*DISP_PEAKSEARCH_UNIT_Y "cps"
*DISP_RANGE_BOTTOM "0.0000000000"
*DISP_RANGE_LEFT "20.0000000000"
*DISP_RANGE_LOGCUTOFF "0.0100000000"
*DISP_RANGE_RIGHT "90.0000000000"
*DISP_RANGE_TOP "42681.0000000000"
*DISP_SCALE_MODE_Y "0.0000000000"
*DISP_TAB_NAME "2θ/θ"
*DISP_TITLE_Y "強度"
*DISP_UNIT_Y "cps"
*DISP_WINDOW_NAME "MSG_MACROENGINE"
*FILE_COMMENT " "
*FILE_MD5 ""
*FILE_MEMO " "
*FILE_OPERATOR "Administrator"
*FILE_SAMPLE " "
*FILE_TYPE "RAS_RAW"
*FILE_USERGROUP "システムマネージャ"
*FILE_VERSION "1.0000000000"
*HW_ATTACHMENT_ID "ATT0025"
*HW_ATTACHMENT_NAME "標準|Standard"
*HW_COUNTER_ID-0 "CUT0025"
*HW_COUNTER_ID-1 "CUT0020"
*HW_COUNTER_ID-2 "CUT0020"
*HW_COUNTER_ID-3 "CSL0021"
*HW_COUNTER_ID-4 "CMC0021"
*HW_COUNTER_NAME-0 "D/teX Ultra|D/teX Ultra"
*HW_COUNTER_NAME-1 "None|None"
*HW_COUNTER_NAME-2 "None|None"
*HW_COUNTER_NAME-3 "BBM|BBM"
*HW_COUNTER_NAME-4 "検出器モノクロメータ|Detector monochromator"
*HW_COUNTER_SELECT_NAME "D/teX Ultra|D/teX Ultra"
*HW_GONIOMETER_ID "GON0023"
*HW_GONIOMETER_NAME "SmartLab|SmartLab"
*HW_GONIOMETER_RADIUS-0 "90.0"
*HW_GONIOMETER_RADIUS-1 "114.0"
*HW_GONIOMETER_RADIUS-2 "190.0"
*HW_GONIOMETER_RADIUS-3 "300.0"
*HW_GONIOMETER_RADIUS-4 "187.0"
*HW_GONIOMETER_RADIUS-5 "300.0"
*HW_GONIOMETER_RADIUS-6 "113.0"
*HW_GONIOMETER_RADIUS-7 "331.0"
*HW_I_OPT_ID-0 "CBO0021"
*HW_I_OPT_ID-1 "ICR0023"
*HW_I_OPT_ID-2 "ISL0021"
*HW_I_OPT_ID-3 "ISO0021"
*HW_I_OPT_ID-4 "IAD0021"
*HW_I_OPT_ID-5 "IPR0001"
*HW_I_OPT_NAME-0 "CBOユニット|CBO unit"
*HW_I_OPT_NAME-1 "標準入射光学ユニット|Standard incident optical unit"
*HW_I_OPT_NAME-2 "標準入射スリットボックス|Standard incident slit box"
*HW_I_OPT_NAME-3 "入射平行スリット|Incident parallel slit"
*HW_I_OPT_NAME-4 "長手制限スリット|Length limiting slit"
*HW_I_OPT_NAME-5 "None|None"
*HW_R_ATTENUATER_AUTOMODE "0"
*HW_R_OPT_ID-0 "RSS0021"
*HW_R_OPT_ID-1 "RCR0023"
*HW_R_OPT_ID-2 "RSO0021"
*HW_R_OPT_ID-3 "RRS0021"
*HW_R_OPT_ID-4 "ATN0021"
*HW_R_OPT_ID-5 "RFL0021"
*HW_R_OPT_ID-6 "RAD0021"
*HW_R_OPT_NAME-0 "標準受光スリットボックス1|Standard receiving slit box # 1"
*HW_R_OPT_NAME-1 "標準受光光学ユニット1|Standard receiving unit # 1"
*HW_R_OPT_NAME-2 "標準受光光学ユニット2|Standard receiving optical unit # 2"
*HW_R_OPT_NAME-3 "標準受光スリットボックス2|Standard receiving slit box # 2"
*HW_R_OPT_NAME-4 "標準アッテネータ|Standard Attenuator"
*HW_R_OPT_NAME-5 "Cu Kβ|Cu K-beta"
*HW_R_OPT_NAME-6 "調整用受光スリット|Alignment receiving slit"
*HW_SAMPLE_HOLDER_ID "SMP0023"
*HW_SAMPLE_HOLDER_NAME "標準Zステージ|Standard Z stage"
*HW_XG_CURRENT_MAX "50"
*HW_XG_CURRENT_MIN "2"
*HW_XG_CURRENT_RESOLUTION "2"
*HW_XG_CURRENT_UNIT "mA"
*HW_XG_FOCUS "1mm x 10mm"
*HW_XG_FOCUS_TYPE "Normal"
*HW_XG_ID ""
*HW_XG_NAME "3kW 封入管(ID:1200)|3kW Sealed tube(ID:1200)"
*HW_XG_TARGET_ATOMIC_NUMBER "29.0000000000"
*HW_XG_TARGET_NAME "Cu"
*HW_XG_TYPE "Hermetic"
*HW_XG_VOLTAGE_MAX "60"
*HW_XG_VOLTAGE_MIN "20"
*HW_XG_VOLTAGE_RESOLUTION "2"
*HW_XG_VOLTAGE_UNIT "kV"
*HW_XG_WATT_MAX "2"
*HW_XG_WATT_UNIT "kW"
*HW_XG_WAVE_LENGTH_ALPHA1 "1.540593"
*HW_XG_WAVE_LENGTH_ALPHA2 "1.544414"
*HW_XG_WAVE_LENGTH_BETA "1.392250"
*MEAS_COND_AXIS_NAME-0 "2θ/θ"
*MEAS_COND_AXIS_NAME-1 "2θ"
*MEAS_COND_AXIS_NAME-2 "ω"
*MEAS_COND_AXIS_NAME-3 "Z"
*MEAS_COND_AXIS_NAME-4 "2θ/ω"
*MEAS_COND_AXIS_NAME-5 "θs"
*MEAS_COND_AXIS_NAME-6 "θd"
*MEAS_COND_AXIS_NAME-7 "Ts"
*MEAS_COND_AXIS_NAME-8 "CBO選択スリット"
*MEAS_COND_AXIS_NAME-9 "M"
*MEAS_COND_AXIS_NAME-10 "入射平行スリット"
*MEAS_COND_AXIS_NAME-11 "入射スリット"
*MEAS_COND_AXIS_NAME-12 ""
*MEAS_COND_AXIS_NAME-13 "Zs"
*MEAS_COND_AXIS_NAME-14 "入射光学素子"
*MEAS_COND_AXIS_NAME-15 "長手制限スリット"
*MEAS_COND_AXIS_NAME-16 "センタースリット"
*MEAS_COND_AXIS_NAME-17 "フィルター"
*MEAS_COND_AXIS_NAME-18 "受光スリット1"
*MEAS_COND_AXIS_NAME-19 "受光スリット2"
*MEAS_COND_AXIS_NAME-20 "受光光学素子"
*MEAS_COND_AXIS_NAME-21 "受光平行スリット"
*MEAS_COND_AXIS_NAME-22 "調整用受光スリット"
*MEAS_COND_AXIS_NAME-23 ""
*MEAS_COND_AXIS_NAME-24 ""
*MEAS_COND_AXIS_NAME-25 "Zd"
*MEAS_COND_AXIS_NAME-26 "アッテネータ"
*MEAS_COND_AXIS_NAME-27 "検出器モノクロメータ"
*MEAS_COND_AXIS_NAME-28 "モノクロメータスリット"
*MEAS_COND_AXIS_NAME-29 "プライマリビーム"
*MEAS_COND_AXIS_NAME-30 "PHA"
*MEAS_COND_AXIS_NAME_INTERNAL-0 "TwoThetaTheta"
*MEAS_COND_AXIS_NAME_INTERNAL-1 "TwoTheta"
*MEAS_COND_AXIS_NAME_INTERNAL-2 "Omega"
*MEAS_COND_AXIS_NAME_INTERNAL-3 "Z"
*MEAS_COND_AXIS_NAME_INTERNAL-4 "TwoThetaOmega"
*MEAS_COND_AXIS_NAME_INTERNAL-5 "ThetaS"
*MEAS_COND_AXIS_NAME_INTERNAL-6 "ThetaD"
*MEAS_COND_AXIS_NAME_INTERNAL-7 "Ts"
*MEAS_COND_AXIS_NAME_INTERNAL-8 "CBO"
*MEAS_COND_AXIS_NAME_INTERNAL-9 "CBO-M"
*MEAS_COND_AXIS_NAME_INTERNAL-10 "IncidentSollerSlit"
*MEAS_COND_AXIS_NAME_INTERNAL-11 "IncidentSlitBox"
*MEAS_COND_AXIS_NAME_INTERNAL-12 "IncidentSlitBox-_Axis"
*MEAS_COND_AXIS_NAME_INTERNAL-13 "Zs"
*MEAS_COND_AXIS_NAME_INTERNAL-14 "IncidentMonochromator"
*MEAS_COND_AXIS_NAME_INTERNAL-15 "IncidentAxdSlit"
*MEAS_COND_AXIS_NAME_INTERNAL-16 "CenterSlit"
*MEAS_COND_AXIS_NAME_INTERNAL-17 "Filter"
*MEAS_COND_AXIS_NAME_INTERNAL-18 "ReceivingSlitBox1"
*MEAS_COND_AXIS_NAME_INTERNAL-19 "ReceivingSlitBox2"
*MEAS_COND_AXIS_NAME_INTERNAL-20 "ReceivingOptics"
*MEAS_COND_AXIS_NAME_INTERNAL-21 "ReceivingSollerSlit"
*MEAS_COND_AXIS_NAME_INTERNAL-22 "ReceivingAxdSlit"
*MEAS_COND_AXIS_NAME_INTERNAL-23 "ReceivingSlitBox1-_Axis"
*MEAS_COND_AXIS_NAME_INTERNAL-24 "ReceivingSlitBox2-_Axis"
*MEAS_COND_AXIS_NAME_INTERNAL-25 "ReceivingSlitBox2-Zd"
*MEAS_COND_AXIS_NAME_INTERNAL-26 "Attenuator"
*MEAS_COND_AXIS_NAME_INTERNAL-27 "CounterMonochromator"
*MEAS_COND_AXIS_NAME_INTERNAL-28 "CounterSlit"
*MEAS_COND_AXIS_NAME_INTERNAL-29 "IncidentPrimary"
*MEAS_COND_AXIS_NAME_INTERNAL-30 "PHA"
*MEAS_COND_AXIS_NAME_MAGICNO-0 "83951616.0000000000"
*MEAS_COND_AXIS_NAME_MAGICNO-1 "268632064.0000000000"
*MEAS_COND_AXIS_NAME_MAGICNO-2 "268500992.0000000000"
*MEAS_COND_AXIS_NAME_MAGICNO-3 "285278208.0000000000"
*MEAS_COND_AXIS_NAME_MAGICNO-4 "83951616.0000000000"
*MEAS_COND_AXIS_NAME_MAGICNO-5 "131072.0000000000"
*MEAS_COND_AXIS_NAME_MAGICNO-6 "131072.0000000000"
*MEAS_COND_AXIS_NAME_MAGICNO-7 "318898176.0000000000"
*MEAS_COND_AXIS_NAME_MAGICNO-8 "20971521.0000000000"
*MEAS_COND_AXIS_NAME_MAGICNO-9 "285343744.0000000000"
*MEAS_COND_AXIS_NAME_MAGICNO-10 "20971521.0000000000"
*MEAS_COND_AXIS_NAME_MAGICNO-11 "22020097.0000000000"
*MEAS_COND_AXIS_NAME_MAGICNO-12 "25165824.0000000000"
*MEAS_COND_AXIS_NAME_MAGICNO-13 "318898176.0000000000"
*MEAS_COND_AXIS_NAME_MAGICNO-14 "1.0000000000"
*MEAS_COND_AXIS_NAME_MAGICNO-15 "20971521.0000000000"
*MEAS_COND_AXIS_NAME_MAGICNO-16 "20971521.0000000000"
*MEAS_COND_AXIS_NAME_MAGICNO-17 "20971521.0000000000"
*MEAS_COND_AXIS_NAME_MAGICNO-18 "23068673.0000000000"
*MEAS_COND_AXIS_NAME_MAGICNO-19 "23068673.0000000000"
*MEAS_COND_AXIS_NAME_MAGICNO-20 "20971521.0000000000"
*MEAS_COND_AXIS_NAME_MAGICNO-21 "20971521.0000000000"
*MEAS_COND_AXIS_NAME_MAGICNO-22 "20971521.0000000000"
*MEAS_COND_AXIS_NAME_MAGICNO-23 "25165824.0000000000"
*MEAS_COND_AXIS_NAME_MAGICNO-24 "25165824.0000000000"
*MEAS_COND_AXIS_NAME_MAGICNO-25 "285343744.0000000000"
*MEAS_COND_AXIS_NAME_MAGICNO-26 "17301505.0000000000"
*MEAS_COND_AXIS_NAME_MAGICNO-27 "20971521.0000000000"
*MEAS_COND_AXIS_NAME_MAGICNO-28 "20971521.0000000000"
*MEAS_COND_AXIS_NAME_MAGICNO-29 "20971521.0000000000"
*MEAS_COND_AXIS_NAME_MAGICNO-30 "0.0000000000"
*MEAS_COND_AXIS_OFFSET-0 "-"
*MEAS_COND_AXIS_OFFSET-1 "-0.1081000000"
*MEAS_COND_AXIS_OFFSET-2 "0.3758000000"
*MEAS_COND_AXIS_OFFSET-3 "-"
*MEAS_COND_AXIS_OFFSET-4 "-"
*MEAS_COND_AXIS_OFFSET-5 "0.3758000000"
*MEAS_COND_AXIS_OFFSET-6 "-0.4839000000"
*MEAS_COND_AXIS_OFFSET-7 "-"
*MEAS_COND_AXIS_OFFSET-8 "-"
*MEAS_COND_AXIS_OFFSET-9 "-"
*MEAS_COND_AXIS_OFFSET-10 "-"
*MEAS_COND_AXIS_OFFSET-11 "-"
*MEAS_COND_AXIS_OFFSET-12 "-"
*MEAS_COND_AXIS_OFFSET-13 "-"
*MEAS_COND_AXIS_OFFSET-14 "-"
*MEAS_COND_AXIS_OFFSET-15 "-"
*MEAS_COND_AXIS_OFFSET-16 "-"
*MEAS_COND_AXIS_OFFSET-17 "-"
*MEAS_COND_AXIS_OFFSET-18 "-"
*MEAS_COND_AXIS_OFFSET-19 "-"
*MEAS_COND_AXIS_OFFSET-20 "-"
*MEAS_COND_AXIS_OFFSET-21 "-"
*MEAS_COND_AXIS_OFFSET-22 "-"
*MEAS_COND_AXIS_OFFSET-23 "-"
*MEAS_COND_AXIS_OFFSET-24 "-"
*MEAS_COND_AXIS_OFFSET-25 "-"
*MEAS_COND_AXIS_OFFSET-26 "-"
*MEAS_COND_AXIS_OFFSET-27 "-"
*MEAS_COND_AXIS_OFFSET-28 "-"
*MEAS_COND_AXIS_OFFSET-29 "-"
*MEAS_COND_AXIS_OFFSET-30 "-"
*MEAS_COND_AXIS_POSITION-0 "0.0000000000"
*MEAS_COND_AXIS_POSITION-1 "0.0000000000"
*MEAS_COND_AXIS_POSITION-2 "0.0000000000"
*MEAS_COND_AXIS_POSITION-3 "-0.5500000000"
*MEAS_COND_AXIS_POSITION-4 "0.0000000000"
*MEAS_COND_AXIS_POSITION-5 "0.0000000000"
*MEAS_COND_AXIS_POSITION-6 "0.0000000000"
*MEAS_COND_AXIS_POSITION-7 "-0.4278800000"
*MEAS_COND_AXIS_POSITION-8 "BB"
*MEAS_COND_AXIS_POSITION-9 "0.0000000000"
*MEAS_COND_AXIS_POSITION-10 "Soller_slit_5.0deg"
*MEAS_COND_AXIS_POSITION-11 "2/3deg"
*MEAS_COND_AXIS_POSITION-12 "2.2088000000"
*MEAS_COND_AXIS_POSITION-13 "-0.4140600000"
*MEAS_COND_AXIS_POSITION-14 "0.0000000000"
*MEAS_COND_AXIS_POSITION-15 "10.0mm"
*MEAS_COND_AXIS_POSITION-16 "None"
*MEAS_COND_AXIS_POSITION-17 "Cu_K-beta"
*MEAS_COND_AXIS_POSITION-18 "13.000mm"
*MEAS_COND_AXIS_POSITION-19 "13.000mm"
*MEAS_COND_AXIS_POSITION-20 "No_unit"
*MEAS_COND_AXIS_POSITION-21 "Soller_slit_5.0deg"
*MEAS_COND_AXIS_POSITION-22 "None"
*MEAS_COND_AXIS_POSITION-23 "13.0000000000"
*MEAS_COND_AXIS_POSITION-24 "13.0000000000"
*MEAS_COND_AXIS_POSITION-25 "0.0109400000"
*MEAS_COND_AXIS_POSITION-26 "Open"
*MEAS_COND_AXIS_POSITION-27 "None"
*MEAS_COND_AXIS_POSITION-28 "None"
*MEAS_COND_AXIS_POSITION-29 "None"
*MEAS_COND_AXIS_POSITION-30 "38.0000000000"
*MEAS_COND_AXIS_UNIT-0 "deg"
*MEAS_COND_AXIS_UNIT-1 "deg"
*MEAS_COND_AXIS_UNIT-2 "deg"
*MEAS_COND_AXIS_UNIT-3 "mm"
*MEAS_COND_AXIS_UNIT-4 "deg"
*MEAS_COND_AXIS_UNIT-5 "deg"
*MEAS_COND_AXIS_UNIT-6 "deg"
*MEAS_COND_AXIS_UNIT-7 "mm"
*MEAS_COND_AXIS_UNIT-8 ""
*MEAS_COND_AXIS_UNIT-9 "pulse"
*MEAS_COND_AXIS_UNIT-10 ""
*MEAS_COND_AXIS_UNIT-11 ""
*MEAS_COND_AXIS_UNIT-12 "mm"
*MEAS_COND_AXIS_UNIT-13 "mm"
*MEAS_COND_AXIS_UNIT-14 ""
*MEAS_COND_AXIS_UNIT-15 ""
*MEAS_COND_AXIS_UNIT-16 ""
*MEAS_COND_AXIS_UNIT-17 ""
*MEAS_COND_AXIS_UNIT-18 ""
*MEAS_COND_AXIS_UNIT-19 ""
*MEAS_COND_AXIS_UNIT-20 ""
*MEAS_COND_AXIS_UNIT-21 ""
*MEAS_COND_AXIS_UNIT-22 ""
*MEAS_COND_AXIS_UNIT-23 "mm"
*MEAS_COND_AXIS_UNIT-24 "mm"
*MEAS_COND_AXIS_UNIT-25 "mm"
*MEAS_COND_AXIS_UNIT-26 ""
*MEAS_COND_AXIS_UNIT-27 ""
*MEAS_COND_AXIS_UNIT-28 ""
*MEAS_COND_AXIS_UNIT-29 ""
*MEAS_COND_AXIS_UNIT-30 "div"
*MEAS_COND_COUNTER_CNTLOSS_CORR "0.0000000000"
*MEAS_COND_COUNTER_PHABASE "38.0000000000"
*MEAS_COND_COUNTER_PHAWINDOW "16.0000000000"
*MEAS_COND_COUNTER_PHA_UNIT "div"
*MEAS_COND_COUNTER_TAUDIFF "30.0000000000"
*MEAS_COND_COUNTER_TAUINT "0.0000000000"
*MEAS_COND_IRRADIATION_MODE "OFF"
*MEAS_COND_IRRADIATION_WIDTH ""
*MEAS_COND_OPT_ATTR "集中法"
*MEAS_COND_OPT_NAME "@集中法"
*MEAS_COND_UNSYMMETRIC_MODE "OFF"
*MEAS_COND_XG_CURRENT "30.0000000000"
*MEAS_COND_XG_VOLTAGE "40.0000000000"
*MEAS_COND_XG_WAVE_TYPE "Ka"
*MEAS_DATA_COUNT "3501.0000000000"
*MEAS_SCAN_AXIS_X "2θ/θ"
*MEAS_SCAN_AXIS_X_INTERNAL "TwoThetaTheta"
*MEAS_SCAN_END_TIME "08/26/20 15:47:57"
*MEAS_SCAN_MODE "CONTINUOUS"
*MEAS_SCAN_MONITOR "0"
*MEAS_SCAN_RESOLUTION_X "0.0002"
*MEAS_SCAN_SPEED "1.0"
*MEAS_SCAN_SPEED_UNIT "deg/min"
*MEAS_SCAN_START "20.0000000000"
*MEAS_SCAN_START_TIME "08/26/20 14:35:02"
*MEAS_SCAN_STEP "0.0200000000"
*MEAS_SCAN_STOP "90.0000000000"
*MEAS_SCAN_UNIT_X "deg"
*MEAS_SCAN_UNIT_Y "counts"
*RAS_HEADER_END
*RAS_INT_START
20.0000 10685.0000 1.0000
20.0200 10725.0000 1.0000
20.0400 10607.0000 1.0000
20.0600 10810.0000 1.0000
20.0800 10720.0000 1.0000
20.1000 10644.0000 1.0000
20.1200 10778.0000 1.0000
20.1400 10856.0000 1.0000
20.1600 10790.0000 1.0000
20.1800 10861.0000 1.0000
20.2000 10965.0000 1.0000
20.2200 10994.0000 1.0000
20.2400 10841.0000 1.0000
20.2600 10657.0000 1.0000
20.2800 10697.0000 1.0000
20.3000 10856.0000 1.0000
20.3200 10855.0000 1.0000
20.3400 10901.0000 1.0000
20.3600 11026.0000 1.0000
20.3800 10800.0000 1.0000
20.4000 10859.0000 1.0000
20.4200 10777.0000 1.0000
20.4400 10928.0000 1.0000
20.4600 10888.0000 1.0000
20.4800 10956.0000 1.0000
20.5000 10928.0000 1.0000
20.5200 11096.0000 1.0000
20.5400 11000.0000 1.0000
20.5600 11048.0000 1.0000
20.5800 10851.0000 1.0000
20.6000 11140.0000 1.0000
20.6200 11039.0000 1.0000
20.6400 11116.0000 1.0000
20.6600 11237.0000 1.0000
20.6800 11106.0000 1.0000
20.7000 11195.0000 1.0000
20.7200 11577.0000 1.0000
20.7400 11616.0000 1.0000
20.7600 12089.0000 1.0000
20.7800 12453.0000 1.0000
20.8000 12763.0000 1.0000
20.8200 13521.0000 1.0000
20.8400 14991.0000 1.0000
20.8600 15792.0000 1.0000
20.8800 17855.0000 1.0000
20.9000 19218.0000 1.0000
20.9200 17209.0000 1.0000
20.9400 15726.0000 1.0000
20.9600 14493.0000 1.0000
20.9800 12776.0000 1.0000
21.0000 11591.0000 1.0000
21.0200 11285.0000 1.0000
21.0400 11260.0000 1.0000
21.0600 11192.0000 1.0000
21.0800 11020.0000 1.0000
21.1000 11170.0000 1.0000
21.1200 10864.0000 1.0000
21.1400 10828.0000 1.0000
21.1600 10774.0000 1.0000
21.1800 10897.0000 1.0000
21.2000 10825.0000 1.0000
21.2200 10885.0000 1.0000
21.2400 10924.0000 1.0000
21.2600 10794.0000 1.0000
21.2800 10844.0000 1.0000
21.3000 10763.0000 1.0000
21.3200 10688.0000 1.0000
21.3400 10764.0000 1.0000
21.3600 10731.0000 1.0000
21.3800 10697.0000 1.0000
21.4000 10910.0000 1.0000
21.4200 10667.0000 1.0000
21.4400 10956.0000 1.0000
21.4600 10722.0000 1.0000
21.4800 10712.0000 1.0000
21.5000 10847.0000 1.0000
21.5200 10578.0000 1.0000
21.5400 10625.0000 1.0000
21.5600 10788.0000 1.0000
21.5800 10689.0000 1.0000
21.6000 10730.0000 1.0000
21.6200 10855.0000 1.0000
21.6400 10865.0000 1.0000
21.6600 10815.0000 1.0000
21.6800 10829.0000 1.0000
21.7000 10844.0000 1.0000
21.7200 10717.0000 1.0000
21.7400 10821.0000 1.0000
21.7600 10941.0000 1.0000
21.7800 10833.0000 1.0000
21.8000 10807.0000 1.0000
21.8200 10768.0000 1.0000
21.8400 10689.0000 1.0000
21.8600 10644.0000 1.0000
21.8800 10710.0000 1.0000
21.9000 10926.0000 1.0000
21.9200 10883.0000 1.0000
21.9400 10804.0000 1.0000
21.9600 10702.0000 1.0000
21.9800 10907.0000 1.0000
22.0000 10923.0000 1.0000
22.0200 10805.0000 1.0000
22.0400 10917.0000 1.0000
22.0600 10771.0000 1.0000
22.0800 10755.0000 1.0000
22.1000 10797.0000 1.0000
22.1200 10669.0000 1.0000
22.1400 10747.0000 1.0000
22.1600 10785.0000 1.0000
22.1800 10808.0000 1.0000
22.2000 10668.0000 1.0000
22.2200 10733.0000 1.0000
22.2400 10752.0000 1.0000
22.2600 10811.0000 1.0000
22.2800 10753.0000 1.0000
22.3000 10694.0000 1.0000
22.3200 10710.0000 1.0000
22.3400 10670.0000 1.0000
22.3600 10780.0000 1.0000
22.3800 10884.0000 1.0000
22.4000 10690.0000 1.0000
22.4200 10879.0000 1.0000
22.4400 10731.0000 1.0000
22.4600 10653.0000 1.0000
22.4800 10800.0000 1.0000
22.5000 10798.0000 1.0000
22.5200 10776.0000 1.0000
22.5400 10748.0000 1.0000
22.5600 10588.0000 1.0000
22.5800 10789.0000 1.0000
22.6000 10787.0000 1.0000
22.6200 10820.0000 1.0000
22.6400 10800.0000 1.0000
22.6600 10754.0000 1.0000
22.6800 10766.0000 1.0000
22.7000 10751.0000 1.0000
22.7200 10573.0000 1.0000
22.7400 10872.0000 1.0000
22.7600 10727.0000 1.0000
22.7800 10769.0000 1.0000
22.8000 10787.0000 1.0000
22.8200 10694.0000 1.0000
22.8400 10558.0000 1.0000
22.8600 10709.0000 1.0000
22.8800 10678.0000 1.0000
22.9000 10656.0000 1.0000
22.9200 10598.0000 1.0000
22.9400 10668.0000 1.0000
22.9600 10536.0000 1.0000
22.9800 10913.0000 1.0000
23.0000 10641.0000 1.0000
23.0200 10673.0000 1.0000
23.0400 10769.0000 1.0000
23.0600 10758.0000 1.0000
23.0800 10831.0000 1.0000
23.1000 10860.0000 1.0000
23.1200 10735.0000 1.0000
23.1400 10676.0000 1.0000
23.1600 10672.0000 1.0000
23.1800 10635.0000 1.0000
23.2000 10796.0000 1.0000
23.2200 10618.0000 1.0000
23.2400 10705.0000 1.0000
23.2600 10693.0000 1.0000
23.2800 10736.0000 1.0000
23.3000 10734.0000 1.0000
23.3200 10807.0000 1.0000
23.3400 10705.0000 1.0000
23.3600 10679.0000 1.0000
23.3800 10844.0000 1.0000
23.4000 10688.0000 1.0000
23.4200 10983.0000 1.0000
23.4400 10645.0000 1.0000
23.4600 10694.0000 1.0000
23.4800 10653.0000 1.0000
23.5000 10690.0000 1.0000
23.5200 10617.0000 1.0000
23.5400 10639.0000 1.0000
23.5600 10516.0000 1.0000
23.5800 10606.0000 1.0000
23.6000 10756.0000 1.0000
23.6200 10599.0000 1.0000
23.6400 10513.0000 1.0000
23.6600 10615.0000 1.0000
23.6800 10675.0000 1.0000
23.7000 10618.0000 1.0000
23.7200 10925.0000 1.0000
23.7400 10765.0000 1.0000
23.7600 10847.0000 1.0000
23.7800 10821.0000 1.0000
23.8000 10740.0000 1.0000
23.8200 10641.0000 1.0000
23.8400 10821.0000 1.0000
23.8600 10789.0000 1.0000
23.8800 10916.0000 1.0000
23.9000 10855.0000 1.0000
23.9200 10843.0000 1.0000
23.9400 10924.0000 1.0000
23.9600 11085.0000 1.0000
23.9800 11198.0000 1.0000
24.0000 11333.0000 1.0000
24.0200 11478.0000 1.0000
24.0400 11654.0000 1.0000
24.0600 12026.0000 1.0000
24.0800 12275.0000 1.0000
24.1000 12549.0000 1.0000
24.1200 13292.0000 1.0000
24.1400 13662.0000 1.0000
24.1600 14343.0000 1.0000
24.1800 14350.0000 1.0000
24.2000 14007.0000 1.0000
24.2200 13748.0000 1.0000
24.2400 13098.0000 1.0000
24.2600 12490.0000 1.0000
24.2800 11991.0000 1.0000
24.3000 11465.0000 1.0000
24.3200 11318.0000 1.0000
24.3400 10970.0000 1.0000
24.3600 10954.0000 1.0000
24.3800 10712.0000 1.0000
24.4000 10746.0000 1.0000
24.4200 10813.0000 1.0000
24.4400 10489.0000 1.0000
24.4600 10751.0000 1.0000
24.4800 10551.0000 1.0000
24.5000 10674.0000 1.0000
24.5200 10852.0000 1.0000
24.5400 10626.0000 1.0000
24.5600 10681.0000 1.0000
24.5800 10642.0000 1.0000
24.6000 10709.0000 1.0000
24.6200 10721.0000 1.0000
24.6400 10553.0000 1.0000
24.6600 10704.0000 1.0000
24.6800 10486.0000 1.0000
24.7000 10507.0000 1.0000
24.7200 10594.0000 1.0000
24.7400 10659.0000 1.0000
24.7600 10549.0000 1.0000
24.7800 10482.0000 1.0000
24.8000 10483.0000 1.0000
24.8200 10604.0000 1.0000
24.8400 10506.0000 1.0000
24.8600 10554.0000 1.0000
24.8800 10588.0000 1.0000
24.9000 10639.0000 1.0000
24.9200 10857.0000 1.0000
24.9400 10525.0000 1.0000
24.9600 10528.0000 1.0000
24.9800 10376.0000 1.0000
25.0000 10574.0000 1.0000
25.0200 10555.0000 1.0000
25.0400 10693.0000 1.0000
25.0600 10499.0000 1.0000
25.0800 10583.0000 1.0000
25.1000 10610.0000 1.0000
25.1200 10474.0000 1.0000
25.1400 10583.0000 1.0000
25.1600 10577.0000 1.0000
25.1800 10598.0000 1.0000
25.2000 10650.0000 1.0000
25.2200 10686.0000 1.0000
25.2400 10496.0000 1.0000
25.2600 10554.0000 1.0000
25.2800 10461.0000 1.0000
25.3000 10582.0000 1.0000
25.3200 10563.0000 1.0000
25.3400 10752.0000 1.0000
25.3600 10596.0000 1.0000
25.3800 10670.0000 1.0000
25.4000 10688.0000 1.0000
25.4200 10786.0000 1.0000
25.4400 10824.0000 1.0000
25.4600 10721.0000 1.0000
25.4800 11052.0000 1.0000
25.5000 10933.0000 1.0000
25.5200 11056.0000 1.0000
25.5400 11248.0000 1.0000
25.5600 11633.0000 1.0000
25.5800 11520.0000 1.0000
25.6000 11740.0000 1.0000
25.6200 11727.0000 1.0000
25.6400 11478.0000 1.0000
25.6600 11444.0000 1.0000
25.6800 11086.0000 1.0000
25.7000 11089.0000 1.0000
25.7200 11047.0000 1.0000
25.7400 10726.0000 1.0000
25.7600 10788.0000 1.0000
25.7800 10847.0000 1.0000
25.8000 10709.0000 1.0000
25.8200 10605.0000 1.0000
25.8400 10862.0000 1.0000
25.8600 10706.0000 1.0000
25.8800 10654.0000 1.0000
25.9000 10529.0000 1.0000
25.9200 10557.0000 1.0000
25.9400 10756.0000 1.0000
25.9600 10516.0000 1.0000
25.9800 10630.0000 1.0000
26.0000 10650.0000 1.0000
26.0200 10582.0000 1.0000
26.0400 10709.0000 1.0000
26.0600 10770.0000 1.0000
26.0800 10676.0000 1.0000
26.1000 10676.0000 1.0000
26.1200 10448.0000 1.0000
26.1400 10591.0000 1.0000
26.1600 10699.0000 1.0000
26.1800 10581.0000 1.0000
26.2000 10534.0000 1.0000
26.2200 10766.0000 1.0000
26.2400 10835.0000 1.0000
26.2600 10599.0000 1.0000
26.2800 10688.0000 1.0000
26.3000 10742.0000 1.0000
26.3200 10892.0000 1.0000
26.3400 10870.0000 1.0000
26.3600 11102.0000 1.0000
26.3800 11289.0000 1.0000
26.4000 11396.0000 1.0000
26.4200 11611.0000 1.0000
26.4400 11851.0000 1.0000
26.4600 12348.0000 1.0000
26.4800 13135.0000 1.0000
26.5000 13958.0000 1.0000
26.5200 14680.0000 1.0000
26.5400 14895.0000 1.0000
26.5600 16945.0000 1.0000
26.5800 20487.0000 1.0000
26.6000 21807.0000 1.0000
26.6200 25299.0000 1.0000
26.6400 34740.0000 1.0000
26.6600 42681.0000 1.0000
26.6800 41665.0000 1.0000
26.7000 34811.0000 1.0000
26.7200 30732.0000 1.0000
26.7400 27737.0000 1.0000
26.7600 22381.0000 1.0000
26.7800 17176.0000 1.0000
26.8000 13980.0000 1.0000
26.8200 12768.0000 1.0000
26.8400 12226.0000 1.0000
26.8600 11771.0000 1.0000
26.8800 11319.0000 1.0000
26.9000 11258.0000 1.0000
26.9200 11077.0000 1.0000
26.9400 10793.0000 1.0000
26.9600 10886.0000 1.0000
26.9800 10740.0000 1.0000
27.0000 10666.0000 1.0000
27.0200 10696.0000 1.0000
27.0400 10508.0000 1.0000
27.0600 10461.0000 1.0000
27.0800 10555.0000 1.0000
27.1000 10683.0000 1.0000
27.1200 10712.0000 1.0000
27.1400 10440.0000 1.0000
27.1600 10455.0000 1.0000
27.1800 10552.0000 1.0000
27.2000 10678.0000 1.0000
27.2200 10397.0000 1.0000
27.2400 10480.0000 1.0000
27.2600 10634.0000 1.0000
27.2800 10400.0000 1.0000
27.3000 10307.0000 1.0000
27.3200 10474.0000 1.0000
27.3400 10313.0000 1.0000
27.3600 10226.0000 1.0000
27.3800 10366.0000 1.0000
27.4000 10429.0000 1.0000
27.4200 10423.0000 1.0000
27.4400 10367.0000 1.0000
27.4600 10526.0000 1.0000
27.4800 10362.0000 1.0000
27.5000 10365.0000 1.0000
27.5200 10514.0000 1.0000
27.5400 10519.0000 1.0000
27.5600 10252.0000 1.0000
27.5800 10182.0000 1.0000
27.6000 10442.0000 1.0000
27.6200 10285.0000 1.0000
27.6400 10459.0000 1.0000
27.6600 10337.0000 1.0000
27.6800 10425.0000 1.0000
27.7000 10181.0000 1.0000
27.7200 10239.0000 1.0000
27.7400 10187.0000 1.0000
27.7600 10340.0000 1.0000
27.7800 10417.0000 1.0000
27.8000 10391.0000 1.0000
27.8200 10211.0000 1.0000
27.8400 10255.0000 1.0000
27.8600 10357.0000 1.0000
27.8800 10301.0000 1.0000
27.9000 10471.0000 1.0000
27.9200 10367.0000 1.0000
27.9400 10523.0000 1.0000
27.9600 10223.0000 1.0000
27.9800 10302.0000 1.0000
28.0000 10336.0000 1.0000
28.0200 10298.0000 1.0000
28.0400 10448.0000 1.0000
28.0600 10357.0000 1.0000
28.0800 10454.0000 1.0000
28.1000 10157.0000 1.0000
28.1200 10455.0000 1.0000
28.1400 10447.0000 1.0000
28.1600 10315.0000 1.0000
28.1800 10198.0000 1.0000
28.2000 10146.0000 1.0000
28.2200 10291.0000 1.0000
28.2400 10412.0000 1.0000
28.2600 10180.0000 1.0000
28.2800 10218.0000 1.0000
28.3000 10057.0000 1.0000
28.3200 10175.0000 1.0000
28.3400 10154.0000 1.0000
28.3600 10408.0000 1.0000
28.3800 10157.0000 1.0000
28.4000 10208.0000 1.0000
28.4200 10276.0000 1.0000
28.4400 10305.0000 1.0000
28.4600 10287.0000 1.0000
28.4800 10376.0000 1.0000
28.5000 10242.0000 1.0000
28.5200 10315.0000 1.0000
28.5400 10302.0000 1.0000
28.5600 10288.0000 1.0000
28.5800 10337.0000 1.0000
28.6000 10226.0000 1.0000
28.6200 10284.0000 1.0000
28.6400 10324.0000 1.0000
28.6600 10430.0000 1.0000
28.6800 10362.0000 1.0000
28.7000 10115.0000 1.0000
28.7200 10159.0000 1.0000
28.7400 10223.0000 1.0000
28.7600 10225.0000 1.0000
28.7800 10548.0000 1.0000
28.8000 10242.0000 1.0000
28.8200 10165.0000 1.0000
28.8400 10201.0000 1.0000
28.8600 10283.0000 1.0000
28.8800 10362.0000 1.0000
28.9000 10391.0000 1.0000
28.9200 10283.0000 1.0000
28.9400 10329.0000 1.0000
28.9600 10214.0000 1.0000
28.9800 10381.0000 1.0000
29.0000 10406.0000 1.0000
29.0200 10196.0000 1.0000
29.0400 10397.0000 1.0000
29.0600 10291.0000 1.0000
29.0800 10315.0000 1.0000
29.1000 10312.0000 1.0000
29.1200 10282.0000 1.0000
29.1400 10296.0000 1.0000
29.1600 10206.0000 1.0000
29.1800 10192.0000 1.0000
29.2000 10079.0000 1.0000
29.2200 10389.0000 1.0000
29.2400 10322.0000 1.0000
29.2600 10097.0000 1.0000
29.2800 10086.0000 1.0000
29.3000 10399.0000 1.0000
29.3200 10287.0000 1.0000
29.3400 10202.0000 1.0000
29.3600 10270.0000 1.0000
29.3800 10247.0000 1.0000
29.4000 10186.0000 1.0000
29.4200 10302.0000 1.0000
29.4400 10219.0000 1.0000
29.4600 10120.0000 1.0000
29.4800 10198.0000 1.0000
29.5000 10374.0000 1.0000
29.5200 10128.0000 1.0000
29.5400 10491.0000 1.0000
29.5600 10305.0000 1.0000
29.5800 10233.0000 1.0000
29.6000 10264.0000 1.0000
29.6200 10277.0000 1.0000
29.6400 10448.0000 1.0000
29.6600 10170.0000 1.0000
29.6800 10237.0000 1.0000
29.7000 10263.0000 1.0000
29.7200 10356.0000 1.0000
29.7400 10197.0000 1.0000
29.7600 10329.0000 1.0000
29.7800 10237.0000 1.0000
29.8000 10269.0000 1.0000
29.8200 10276.0000 1.0000
29.8400 10446.0000 1.0000
29.8600 10471.0000 1.0000
29.8800 10346.0000 1.0000
29.9000 10252.0000 1.0000
29.9200 10447.0000 1.0000
29.9400 10472.0000 1.0000
29.9600 10613.0000 1.0000
29.9800 10656.0000 1.0000
30.0000 10810.0000 1.0000
30.0200 10857.0000 1.0000
30.0400 10845.0000 1.0000
30.0600 11251.0000 1.0000
30.0800 11528.0000 1.0000
30.1000 11874.0000 1.0000
30.1200 12301.0000 1.0000
30.1400 12510.0000 1.0000
30.1600 12616.0000 1.0000
30.1800 12590.0000 1.0000
30.2000 12196.0000 1.0000
30.2200 12161.0000 1.0000
30.2400 11808.0000 1.0000
30.2600 11432.0000 1.0000
30.2800 11190.0000 1.0000
30.3000 11075.0000 1.0000
30.3200 10762.0000 1.0000
30.3400 10590.0000 1.0000
30.3600 10526.0000 1.0000
30.3800 10570.0000 1.0000
30.4000 10411.0000 1.0000
30.4200 10542.0000 1.0000
30.4400 10465.0000 1.0000
30.4600 10416.0000 1.0000
30.4800 10208.0000 1.0000
30.5000 10249.0000 1.0000
30.5200 10278.0000 1.0000
30.5400 10349.0000 1.0000
30.5600 10359.0000 1.0000
30.5800 10366.0000 1.0000
30.6000 10275.0000 1.0000
30.6200 10457.0000 1.0000
30.6400 10332.0000 1.0000
30.6600 10267.0000 1.0000
30.6800 10273.0000 1.0000
30.7000 10288.0000 1.0000
30.7200 10175.0000 1.0000
30.7400 10299.0000 1.0000
30.7600 10405.0000 1.0000
30.7800 10212.0000 1.0000
30.8000 10324.0000 1.0000
30.8200 10209.0000 1.0000
30.8400 10370.0000 1.0000
30.8600 10121.0000 1.0000
30.8800 10249.0000 1.0000
30.9000 10247.0000 1.0000
30.9200 10118.0000 1.0000
30.9400 10318.0000 1.0000
30.9600 10269.0000 1.0000
30.9800 9978.0000 1.0000
31.0000 10193.0000 1.0000
31.0200 10208.0000 1.0000
31.0400 10261.0000 1.0000
31.0600 10287.0000 1.0000
31.0800 10373.0000 1.0000
31.1000 10265.0000 1.0000
31.1200 10228.0000 1.0000
31.1400 10149.0000 1.0000
31.1600 10194.0000 1.0000
31.1800 10298.0000 1.0000
31.2000 10045.0000 1.0000
31.2200 10061.0000 1.0000
31.2400 10214.0000 1.0000
31.2600 10104.0000 1.0000
31.2800 10105.0000 1.0000
31.3000 10269.0000 1.0000
31.3200 10105.0000 1.0000
31.3400 10228.0000 1.0000
31.3600 10262.0000 1.0000
31.3800 10152.0000 1.0000
31.4000 10135.0000 1.0000
31.4200 10297.0000 1.0000
31.4400 10167.0000 1.0000
31.4600 10206.0000 1.0000
31.4800 10221.0000 1.0000
31.5000 10058.0000 1.0000
31.5200 10215.0000 1.0000
31.5400 10300.0000 1.0000
31.5600 10113.0000 1.0000
31.5800 10161.0000 1.0000
31.6000 10127.0000 1.0000
31.6200 10069.0000 1.0000
31.6400 10237.0000 1.0000
31.6600 10175.0000 1.0000
31.6800 10267.0000 1.0000
31.7000 10341.0000 1.0000
31.7200 10244.0000 1.0000
31.7400 10207.0000 1.0000
31.7600 10357.0000 1.0000
31.7800 10300.0000 1.0000
31.8000 10213.0000 1.0000
31.8200 10319.0000 1.0000
31.8400 10224.0000 1.0000
31.8600 10196.0000 1.0000
31.8800 10294.0000 1.0000
31.9000 10313.0000 1.0000
31.9200 10220.0000 1.0000
31.9400 10268.0000 1.0000
31.9600 10402.0000 1.0000
31.9800 10405.0000 1.0000
32.0000 10410.0000 1.0000
32.0200 10227.0000 1.0000
32.0400 10278.0000 1.0000
32.0600 10147.0000 1.0000
32.0800 10181.0000 1.0000
32.1000 10384.0000 1.0000
32.1200 10245.0000 1.0000
32.1400 10316.0000 1.0000
32.1600 10350.0000 1.0000
32.1800 10168.0000 1.0000
32.2000 10255.0000 1.0000
32.2200 10195.0000 1.0000
32.2400 10333.0000 1.0000
32.2600 10307.0000 1.0000
32.2800 10238.0000 1.0000
32.3000 10232.0000 1.0000
32.3200 10162.0000 1.0000
32.3400 10159.0000 1.0000
32.3600 10285.0000 1.0000
32.3800 10332.0000 1.0000
32.4000 10049.0000 1.0000
32.4200 10130.0000 1.0000
32.4400 10153.0000 1.0000
32.4600 10356.0000 1.0000
32.4800 10074.0000 1.0000
32.5000 10211.0000 1.0000
32.5200 10171.0000 1.0000
32.5400 10174.0000 1.0000
32.5600 10344.0000 1.0000
32.5800 10302.0000 1.0000
32.6000 10415.0000 1.0000
32.6200 10295.0000 1.0000
32.6400 10185.0000 1.0000
32.6600 10278.0000 1.0000
32.6800 10292.0000 1.0000
32.7000 10331.0000 1.0000
32.7200 10157.0000 1.0000
32.7400 10230.0000 1.0000
32.7600 10182.0000 1.0000
32.7800 10483.0000 1.0000
32.8000 10332.0000 1.0000
32.8200 10513.0000 1.0000
32.8400 10683.0000 1.0000
32.8600 10532.0000 1.0000
32.8800 10702.0000 1.0000
32.9000 10950.0000 1.0000
32.9200 10860.0000 1.0000
32.9400 10941.0000 1.0000
32.9600 11150.0000 1.0000
32.9800 11340.0000 1.0000
33.0000 11649.0000 1.0000
33.0200 11809.0000 1.0000
33.0400 12288.0000 1.0000
33.0600 12963.0000 1.0000
33.0800 13665.0000 1.0000
33.1000 14969.0000 1.0000
33.1200 16614.0000 1.0000
33.1400 18733.0000 1.0000
33.1600 20767.0000 1.0000
33.1800 22515.0000 1.0000
33.2000 22747.0000 1.0000
33.2200 21499.0000 1.0000
33.2400 20180.0000 1.0000
33.2600 18928.0000 1.0000
33.2800 17796.0000 1.0000
33.3000 16046.0000 1.0000
33.3200 14645.0000 1.0000
33.3400 13200.0000 1.0000
33.3600 12349.0000 1.0000
33.3800 11680.0000 1.0000
33.4000 11270.0000 1.0000
33.4200 11041.0000 1.0000
33.4400 10722.0000 1.0000
33.4600 10610.0000 1.0000
33.4800 10669.0000 1.0000
33.5000 10691.0000 1.0000
33.5200 10460.0000 1.0000
33.5400 10342.0000 1.0000
33.5600 10456.0000 1.0000
33.5800 10342.0000 1.0000
33.6000 10305.0000 1.0000
33.6200 10231.0000 1.0000
33.6400 10143.0000 1.0000
33.6600 10194.0000 1.0000
33.6800 10157.0000 1.0000
33.7000 10280.0000 1.0000
33.7200 10074.0000 1.0000
33.7400 10286.0000 1.0000
33.7600 10144.0000 1.0000
33.7800 10242.0000 1.0000
33.8000 10067.0000 1.0000
33.8200 10086.0000 1.0000
33.8400 10246.0000 1.0000
33.8600 10107.0000 1.0000
33.8800 10234.0000 1.0000
33.9000 10025.0000 1.0000
33.9200 10206.0000 1.0000
33.9400 10138.0000 1.0000
33.9600 10251.0000 1.0000
33.9800 10188.0000 1.0000
34.0000 10183.0000 1.0000
34.0200 10363.0000 1.0000
34.0400 10052.0000 1.0000
34.0600 10145.0000 1.0000
34.0800 10164.0000 1.0000
34.1000 10148.0000 1.0000
34.1200 10118.0000 1.0000
34.1400 10184.0000 1.0000
34.1600 10282.0000 1.0000
34.1800 10236.0000 1.0000
34.2000 10201.0000 1.0000
34.2200 10265.0000 1.0000
34.2400 10315.0000 1.0000
34.2600 10293.0000 1.0000
34.2800 10121.0000 1.0000
34.3000 10160.0000 1.0000
34.3200 10265.0000 1.0000
34.3400 10225.0000 1.0000
34.3600 10082.0000 1.0000
34.3800 10300.0000 1.0000
34.4000 10220.0000 1.0000
34.4200 10154.0000 1.0000
34.4400 10159.0000 1.0000
34.4600 10247.0000 1.0000
34.4800 10187.0000 1.0000
34.5000 10199.0000 1.0000
34.5200 10413.0000 1.0000
34.5400 10206.0000 1.0000
34.5600 10259.0000 1.0000
34.5800 10149.0000 1.0000
34.6000 10126.0000 1.0000
34.6200 10192.0000 1.0000
34.6400 10194.0000 1.0000
34.6600 10320.0000 1.0000
34.6800 10094.0000 1.0000
34.7000 10209.0000 1.0000
34.7200 10398.0000 1.0000
34.7400 10122.0000 1.0000
34.7600 10201.0000 1.0000
34.7800 10304.0000 1.0000
34.8000 10162.0000 1.0000
34.8200 10250.0000 1.0000
34.8400 10129.0000 1.0000
34.8600 10229.0000 1.0000
34.8800 10305.0000 1.0000
34.9000 10461.0000 1.0000
34.9200 10458.0000 1.0000
34.9400 10579.0000 1.0000
34.9600 10317.0000 1.0000
34.9800 10401.0000 1.0000
35.0000 10598.0000 1.0000
35.0200 10675.0000 1.0000
35.0400 10627.0000 1.0000
35.0600 11039.0000 1.0000
35.0800 11056.0000 1.0000
35.1000 11128.0000 1.0000
35.1200 11586.0000 1.0000
35.1400 11969.0000 1.0000
35.1600 12537.0000 1.0000
35.1800 12491.0000 1.0000
35.2000 12283.0000 1.0000
35.2200 12186.0000 1.0000
35.2400 12060.0000 1.0000
35.2600 11943.0000 1.0000
35.2800 11862.0000 1.0000
35.3000 11923.0000 1.0000
35.3200 11860.0000 1.0000
35.3400 11939.0000 1.0000
35.3600 12040.0000 1.0000
35.3800 12157.0000 1.0000
35.4000 12958.0000 1.0000
35.4200 13819.0000 1.0000
35.4400 14943.0000 1.0000
35.4600 16354.0000 1.0000
35.4800 17898.0000 1.0000
35.5000 18990.0000 1.0000
35.5200 19538.0000 1.0000
35.5400 19542.0000 1.0000
35.5600 19906.0000 1.0000
35.5800 20263.0000 1.0000
35.6000 20930.0000 1.0000
35.6200 21686.0000 1.0000
35.6400 22469.0000 1.0000
35.6600 22337.0000 1.0000
35.6800 21536.0000 1.0000
35.7000 19694.0000 1.0000
35.7200 18252.0000 1.0000
35.7400 17430.0000 1.0000
35.7600 16438.0000 1.0000
35.7800 15241.0000 1.0000
35.8000 13880.0000 1.0000
35.8200 12708.0000 1.0000
35.8400 12062.0000 1.0000
35.8600 11553.0000 1.0000
35.8800 11387.0000 1.0000
35.9000 10881.0000 1.0000
35.9200 10717.0000 1.0000
35.9400 10753.0000 1.0000
35.9600 10519.0000 1.0000
35.9800 10471.0000 1.0000
36.0000 10376.0000 1.0000
36.0200 10363.0000 1.0000
36.0400 10357.0000 1.0000
36.0600 10317.0000 1.0000
36.0800 10346.0000 1.0000
36.1000 10281.0000 1.0000
36.1200 10209.0000 1.0000
36.1400 10209.0000 1.0000
36.1600 10134.0000 1.0000
36.1800 10364.0000 1.0000
36.2000 10088.0000 1.0000
36.2200 10136.0000 1.0000
36.2400 10141.0000 1.0000
36.2600 10172.0000 1.0000
36.2800 10331.0000 1.0000
36.3000 10178.0000 1.0000
36.3200 10295.0000 1.0000
36.3400 10342.0000 1.0000
36.3600 10194.0000 1.0000
36.3800 10279.0000 1.0000
36.4000 10222.0000 1.0000
36.4200 10521.0000 1.0000
36.4400 10425.0000 1.0000
36.4600 10611.0000 1.0000
36.4800 10865.0000 1.0000
36.5000 10730.0000 1.0000
36.5200 11196.0000 1.0000
36.5400 11902.0000 1.0000
36.5600 12439.0000 1.0000
36.5800 12730.0000 1.0000
36.6000 11752.0000 1.0000
36.6200 11301.0000 1.0000
36.6400 11361.0000 1.0000
36.6600 11455.0000 1.0000
36.6800 11275.0000 1.0000
36.7000 10875.0000 1.0000
36.7200 10552.0000 1.0000
36.7400 10270.0000 1.0000
36.7600 10295.0000 1.0000
36.7800 10153.0000 1.0000
36.8000 10357.0000 1.0000
36.8200 10132.0000 1.0000
36.8400 10018.0000 1.0000
36.8600 10148.0000 1.0000
36.8800 10153.0000 1.0000
36.9000 10194.0000 1.0000
36.9200 10308.0000 1.0000
36.9400 10034.0000 1.0000
36.9600 10195.0000 1.0000
36.9800 10186.0000 1.0000
37.0000 10105.0000 1.0000
37.0200 10021.0000 1.0000
37.0400 10263.0000 1.0000
37.0600 10197.0000 1.0000
37.0800 10412.0000 1.0000
37.1000 10431.0000 1.0000
37.1200 10328.0000 1.0000
37.1400 10405.0000 1.0000
37.1600 10495.0000 1.0000
37.1800 10555.0000 1.0000
37.2000 10242.0000 1.0000
37.2200 10410.0000 1.0000
37.2400 10188.0000 1.0000
37.2600 10239.0000 1.0000
37.2800 10178.0000 1.0000
37.3000 10136.0000 1.0000
37.3200 10073.0000 1.0000
37.3400 10028.0000 1.0000
37.3600 10215.0000 1.0000
37.3800 9968.0000 1.0000
37.4000 10079.0000 1.0000
37.4200 10248.0000 1.0000
37.4400 10101.0000 1.0000
37.4600 9992.0000 1.0000
37.4800 9938.0000 1.0000
37.5000 10033.0000 1.0000
37.5200 9973.0000 1.0000
37.5400 9964.0000 1.0000
37.5600 10169.0000 1.0000
37.5800 10159.0000 1.0000
37.6000 10131.0000 1.0000
37.6200 10184.0000 1.0000
37.6400 10227.0000 1.0000
37.6600 10090.0000 1.0000
37.6800 10254.0000 1.0000
37.7000 10423.0000 1.0000
37.7200 10291.0000 1.0000
37.7400 10553.0000 1.0000
37.7600 10781.0000 1.0000
37.7800 10801.0000 1.0000
37.8000 10866.0000 1.0000
37.8200 10982.0000 1.0000
37.8400 10739.0000 1.0000
37.8600 10645.0000 1.0000
37.8800 10705.0000 1.0000
37.9000 10528.0000 1.0000
37.9200 10326.0000 1.0000
37.9400 10360.0000 1.0000
37.9600 10263.0000 1.0000
37.9800 10189.0000 1.0000
38.0000 10268.0000 1.0000
38.0200 10432.0000 1.0000
38.0400 10276.0000 1.0000
38.0600 10093.0000 1.0000
38.0800 10030.0000 1.0000
38.1000 10036.0000 1.0000
38.1200 9985.0000 1.0000
38.1400 9954.0000 1.0000
38.1600 10011.0000 1.0000
38.1800 10135.0000 1.0000
38.2000 10306.0000 1.0000
38.2200 10115.0000 1.0000
38.2400 10217.0000 1.0000
38.2600 9915.0000 1.0000
38.2800 10074.0000 1.0000
38.3000 9920.0000 1.0000
38.3200 10147.0000 1.0000
38.3400 10026.0000 1.0000
38.3600 10201.0000 1.0000
38.3800 10066.0000 1.0000
38.4000 10189.0000 1.0000
38.4200 10144.0000 1.0000
38.4400 10053.0000 1.0000
38.4600 9976.0000 1.0000
38.4800 9914.0000 1.0000
38.5000 10018.0000 1.0000
38.5200 10018.0000 1.0000
38.5400 9975.0000 1.0000
38.5600 10302.0000 1.0000
38.5800 9951.0000 1.0000
38.6000 10094.0000 1.0000
38.6200 9951.0000 1.0000
38.6400 9999.0000 1.0000
38.6600 10087.0000 1.0000
38.6800 10045.0000 1.0000
38.7000 10053.0000 1.0000
38.7200 9840.0000 1.0000
38.7400 10226.0000 1.0000
38.7600 10183.0000 1.0000
38.7800 10135.0000 1.0000
38.8000 10015.0000 1.0000
38.8200 10092.0000 1.0000
38.8400 10090.0000 1.0000
38.8600 10053.0000 1.0000
38.8800 10041.0000 1.0000
38.9000 10067.0000 1.0000
38.9200 10115.0000 1.0000
38.9400 10010.0000 1.0000
38.9600 10061.0000 1.0000
38.9800 10102.0000 1.0000
39.0000 10033.0000 1.0000
39.0200 10024.0000 1.0000
39.0400 10000.0000 1.0000
39.0600 10044.0000 1.0000
39.0800 10085.0000 1.0000
39.1000 10213.0000 1.0000
39.1200 10094.0000 1.0000
39.1400 10124.0000 1.0000
39.1600 10089.0000 1.0000
39.1800 10051.0000 1.0000
39.2000 10111.0000 1.0000
39.2200 10122.0000 1.0000
39.2400 10216.0000 1.0000
39.2600 10285.0000 1.0000
39.2800 10257.0000 1.0000
39.3000 10392.0000 1.0000
39.3200 10302.0000 1.0000
39.3400 10274.0000 1.0000
39.3600 10365.0000 1.0000
39.3800 10572.0000 1.0000
39.4000 10528.0000 1.0000
39.4200 10486.0000 1.0000
39.4400 10808.0000 1.0000
39.4600 11185.0000 1.0000
39.4800 11292.0000 1.0000
39.5000 11473.0000 1.0000
39.5200 11124.0000 1.0000
39.5400 10769.0000 1.0000
39.5600 10804.0000 1.0000
39.5800 10957.0000 1.0000
39.6000 10651.0000 1.0000
39.6200 10507.0000 1.0000
39.6400 10412.0000 1.0000
39.6600 10144.0000 1.0000
39.6800 10072.0000 1.0000
39.7000 10053.0000 1.0000
39.7200 10124.0000 1.0000
39.7400 10246.0000 1.0000
39.7600 10159.0000 1.0000
39.7800 9965.0000 1.0000
39.8000 10012.0000 1.0000
39.8200 9989.0000 1.0000
39.8400 10042.0000 1.0000
39.8600 10111.0000 1.0000
39.8800 10034.0000 1.0000
39.9000 10068.0000 1.0000
39.9200 10068.0000 1.0000
39.9400 10082.0000 1.0000
39.9600 9923.0000 1.0000
39.9800 9996.0000 1.0000
40.0000 9897.0000 1.0000
40.0200 10100.0000 1.0000
40.0400 10067.0000 1.0000
40.0600 10192.0000 1.0000
40.0800 10079.0000 1.0000
40.1000 10080.0000 1.0000
40.1200 10042.0000 1.0000
40.1400 10030.0000 1.0000
40.1600 10190.0000 1.0000
40.1800 10110.0000 1.0000
40.2000 9988.0000 1.0000
40.2200 10332.0000 1.0000
40.2400 10175.0000 1.0000
40.2600 10579.0000 1.0000
40.2800 11178.0000 1.0000
40.3000 11360.0000 1.0000
40.3200 11331.0000 1.0000
40.3400 10776.0000 1.0000
40.3600 10479.0000 1.0000
40.3800 10714.0000 1.0000
40.4000 10764.0000 1.0000
40.4200 10756.0000 1.0000
40.4400 10445.0000 1.0000
40.4600 10295.0000 1.0000
40.4800 10396.0000 1.0000
40.5000 10140.0000 1.0000
40.5200 10375.0000 1.0000
40.5400 10146.0000 1.0000
40.5600 10352.0000 1.0000
40.5800 10170.0000 1.0000
40.6000 10124.0000 1.0000
40.6200 10117.0000 1.0000
40.6400 10150.0000 1.0000
40.6600 10202.0000 1.0000
40.6800 10318.0000 1.0000
40.7000 10302.0000 1.0000
40.7200 10658.0000 1.0000
40.7400 10468.0000 1.0000
40.7600 10767.0000 1.0000
40.7800 10897.0000 1.0000
40.8000 10992.0000 1.0000
40.8200 11337.0000 1.0000
40.8400 12024.0000 1.0000
40.8600 12600.0000 1.0000
40.8800 12772.0000 1.0000
40.9000 12929.0000 1.0000
40.9200 12655.0000 1.0000
40.9400 12105.0000 1.0000
40.9600 11863.0000 1.0000
40.9800 11921.0000 1.0000
41.0000 11785.0000 1.0000
41.0200 11418.0000 1.0000
41.0400 11085.0000 1.0000
41.0600 10855.0000 1.0000
41.0800 10468.0000 1.0000
41.1000 10541.0000 1.0000
41.1200 10242.0000 1.0000
41.1400 10383.0000 1.0000
41.1600 10213.0000 1.0000
41.1800 10284.0000 1.0000
41.2000 10228.0000 1.0000
41.2200 10240.0000 1.0000
41.2400 10064.0000 1.0000
41.2600 10093.0000 1.0000
41.2800 10010.0000 1.0000
41.3000 10074.0000 1.0000
41.3200 10005.0000 1.0000
41.3400 10215.0000 1.0000
41.3600 10022.0000 1.0000
41.3800 10046.0000 1.0000
41.4000 10023.0000 1.0000
41.4200 10162.0000 1.0000
41.4400 10080.0000 1.0000
41.4600 10147.0000 1.0000
41.4800 10135.0000 1.0000
41.5000 9960.0000 1.0000
41.5200 10039.0000 1.0000
41.5400 10075.0000 1.0000
41.5600 10205.0000 1.0000
41.5800 10122.0000 1.0000
41.6000 10074.0000 1.0000
41.6200 10104.0000 1.0000
41.6400 10109.0000 1.0000
41.6600 10005.0000 1.0000
41.6800 10023.0000 1.0000
41.7000 10178.0000 1.0000
41.7200 9939.0000 1.0000
41.7400 9834.0000 1.0000
41.7600 9976.0000 1.0000
41.7800 10120.0000 1.0000
41.8000 10062.0000 1.0000
41.8200 10034.0000 1.0000
41.8400 10042.0000 1.0000
41.8600 10054.0000 1.0000
41.8800 9984.0000 1.0000
41.9000 10115.0000 1.0000
41.9200 10001.0000 1.0000
41.9400 9990.0000 1.0000
41.9600 10015.0000 1.0000
41.9800 10218.0000 1.0000
42.0000 10060.0000 1.0000
42.0200 10034.0000 1.0000
42.0400 9899.0000 1.0000
42.0600 9914.0000 1.0000
42.0800 10139.0000 1.0000
42.1000 10051.0000 1.0000
42.1200 10215.0000 1.0000
42.1400 9998.0000 1.0000
42.1600 10033.0000 1.0000
42.1800 10086.0000 1.0000
42.2000 10210.0000 1.0000
42.2200 10153.0000 1.0000
42.2400 10148.0000 1.0000
42.2600 10122.0000 1.0000
42.2800 10164.0000 1.0000
42.3000 10151.0000 1.0000
42.3200 10172.0000 1.0000
42.3400 10322.0000 1.0000
42.3600 10312.0000 1.0000
42.3800 10373.0000 1.0000
42.4000 10850.0000 1.0000
42.4200 11288.0000 1.0000
42.4400 12016.0000 1.0000
42.4600 13227.0000 1.0000
42.4800 13985.0000 1.0000
42.5000 12706.0000 1.0000
42.5200 11585.0000 1.0000
42.5400 11231.0000 1.0000
42.5600 11489.0000 1.0000
42.5800 11936.0000 1.0000
42.6000 11655.0000 1.0000
42.6200 11065.0000 1.0000
42.6400 10558.0000 1.0000
42.6600 10368.0000 1.0000
42.6800 10346.0000 1.0000
42.7000 10042.0000 1.0000
42.7200 10310.0000 1.0000
42.7400 10092.0000 1.0000
42.7600 10105.0000 1.0000
42.7800 10200.0000 1.0000
42.8000 10114.0000 1.0000
42.8200 9994.0000 1.0000
42.8400 10254.0000 1.0000
42.8600 10186.0000 1.0000
42.8800 10139.0000 1.0000
42.9000 10178.0000 1.0000
42.9200 10350.0000 1.0000
42.9400 10269.0000 1.0000
42.9600 10373.0000 1.0000
42.9800 10365.0000 1.0000
43.0000 10190.0000 1.0000
43.0200 10427.0000 1.0000
43.0400 10386.0000 1.0000
43.0600 10816.0000 1.0000
43.0800 11009.0000 1.0000
43.1000 11468.0000 1.0000
43.1200 11643.0000 1.0000
43.1400 11856.0000 1.0000
43.1600 11905.0000 1.0000
43.1800 11765.0000 1.0000
43.2000 11718.0000 1.0000
43.2200 11722.0000 1.0000
43.2400 11786.0000 1.0000
43.2600 11787.0000 1.0000
43.2800 12084.0000 1.0000
43.3000 12098.0000 1.0000
43.3200 12223.0000 1.0000
43.3400 12318.0000 1.0000
43.3600 12508.0000 1.0000
43.3800 12555.0000 1.0000
43.4000 12488.0000 1.0000
43.4200 12076.0000 1.0000
43.4400 11708.0000 1.0000
43.4600 11662.0000 1.0000
43.4800 11761.0000 1.0000
43.5000 11532.0000 1.0000
43.5200 11453.0000 1.0000
43.5400 11266.0000 1.0000
43.5600 10836.0000 1.0000
43.5800 10593.0000 1.0000
43.6000 10444.0000 1.0000
43.6200 10238.0000 1.0000
43.6400 10273.0000 1.0000
43.6600 10431.0000 1.0000
43.6800 10279.0000 1.0000
43.7000 10203.0000 1.0000
43.7200 10291.0000 1.0000
43.7400 10182.0000 1.0000
43.7600 10217.0000 1.0000
43.7800 10119.0000 1.0000
43.8000 10079.0000 1.0000
43.8200 9953.0000 1.0000
43.8400 9927.0000 1.0000
43.8600 9910.0000 1.0000
43.8800 10065.0000 1.0000
43.9000 10141.0000 1.0000
43.9200 9918.0000 1.0000
43.9400 10022.0000 1.0000
43.9600 9975.0000 1.0000
43.9800 9901.0000 1.0000
44.0000 10046.0000 1.0000
44.0200 9896.0000 1.0000
44.0400 10145.0000 1.0000
44.0600 9950.0000 1.0000
44.0800 9915.0000 1.0000
44.1000 10011.0000 1.0000
44.1200 10131.0000 1.0000
44.1400 10071.0000 1.0000
44.1600 10002.0000 1.0000
44.1800 9910.0000 1.0000
44.2000 10069.0000 1.0000
44.2200 10007.0000 1.0000
44.2400 9949.0000 1.0000
44.2600 10077.0000 1.0000
44.2800 10059.0000 1.0000
44.3000 9998.0000 1.0000
44.3200 9907.0000 1.0000
44.3400 10057.0000 1.0000
44.3600 9851.0000 1.0000
44.3800 10084.0000 1.0000
44.4000 9953.0000 1.0000
44.4200 10071.0000 1.0000
44.4400 10047.0000 1.0000
44.4600 9851.0000 1.0000
44.4800 10078.0000 1.0000
44.5000 9987.0000 1.0000
44.5200 9953.0000 1.0000
44.5400 9916.0000 1.0000
44.5600 9996.0000 1.0000
44.5800 10017.0000 1.0000
44.6000 10074.0000 1.0000
44.6200 10023.0000 1.0000
44.6400 9952.0000 1.0000
44.6600 10030.0000 1.0000
44.6800 9930.0000 1.0000
44.7000 10072.0000 1.0000
44.7200 10023.0000 1.0000
44.7400 9889.0000 1.0000
44.7600 9928.0000 1.0000
44.7800 10051.0000 1.0000
44.8000 9757.0000 1.0000
44.8200 10042.0000 1.0000
44.8400 9990.0000 1.0000
44.8600 9939.0000 1.0000
44.8800 9959.0000 1.0000
44.9000 9744.0000 1.0000
44.9200 9982.0000 1.0000
44.9400 10048.0000 1.0000
44.9600 9870.0000 1.0000
44.9800 9899.0000 1.0000
45.0000 9803.0000 1.0000
45.0200 9780.0000 1.0000
45.0400 10128.0000 1.0000
45.0600 10150.0000 1.0000
45.0800 9988.0000 1.0000
45.1000 9932.0000 1.0000
45.1200 9995.0000 1.0000
45.1400 9970.0000 1.0000
45.1600 10055.0000 1.0000
45.1800 9818.0000 1.0000
45.2000 10049.0000 1.0000
45.2200 10088.0000 1.0000
45.2400 9992.0000 1.0000
45.2600 9941.0000 1.0000
45.2800 10090.0000 1.0000
45.3000 9968.0000 1.0000
45.3200 10002.0000 1.0000
45.3400 9961.0000 1.0000
45.3600 10027.0000 1.0000
45.3800 10099.0000 1.0000
45.4000 9889.0000 1.0000
45.4200 9924.0000 1.0000
45.4400 10067.0000 1.0000
45.4600 10022.0000 1.0000
45.4800 9970.0000 1.0000
45.5000 9963.0000 1.0000
45.5200 9915.0000 1.0000
45.5400 10043.0000 1.0000
45.5600 10007.0000 1.0000
45.5800 10126.0000 1.0000
45.6000 9981.0000 1.0000
45.6200 10102.0000 1.0000
45.6400 10028.0000 1.0000
45.6600 9938.0000 1.0000
45.6800 10075.0000 1.0000
45.7000 10044.0000 1.0000
45.7200 10074.0000 1.0000
45.7400 10308.0000 1.0000
45.7600 10388.0000 1.0000
45.7800 10692.0000 1.0000
45.8000 10678.0000 1.0000
45.8200 10735.0000 1.0000
45.8400 10631.0000 1.0000
45.8600 10255.0000 1.0000
45.8800 10188.0000 1.0000
45.9000 10256.0000 1.0000
45.9200 10543.0000 1.0000
45.9400 10587.0000 1.0000
45.9600 10491.0000 1.0000
45.9800 10239.0000 1.0000
46.0000 10039.0000 1.0000
46.0200 10126.0000 1.0000
46.0400 9848.0000 1.0000
46.0600 10063.0000 1.0000
46.0800 9911.0000 1.0000
46.1000 10038.0000 1.0000
46.1200 9924.0000 1.0000
46.1400 10038.0000 1.0000
46.1600 9950.0000 1.0000
46.1800 9991.0000 1.0000
46.2000 10164.0000 1.0000
46.2200 10011.0000 1.0000
46.2400 9944.0000 1.0000
46.2600 9809.0000 1.0000
46.2800 10062.0000 1.0000
46.3000 9850.0000 1.0000
46.3200 10115.0000 1.0000
46.3400 9995.0000 1.0000
46.3600 9963.0000 1.0000
46.3800 10036.0000 1.0000
46.4000 10028.0000 1.0000
46.4200 9806.0000 1.0000
46.4400 10024.0000 1.0000
46.4600 9984.0000 1.0000
46.4800 9883.0000 1.0000
46.5000 10067.0000 1.0000
46.5200 9983.0000 1.0000
46.5400 9898.0000 1.0000
46.5600 9964.0000 1.0000
46.5800 9937.0000 1.0000
46.6000 10016.0000 1.0000
46.6200 9986.0000 1.0000
46.6400 9949.0000 1.0000
46.6600 9930.0000 1.0000
46.6800 9975.0000 1.0000
46.7000 9973.0000 1.0000
46.7200 9884.0000 1.0000
46.7400 10054.0000 1.0000
46.7600 9992.0000 1.0000
46.7800 9920.0000 1.0000
46.8000 9862.0000 1.0000
46.8200 9884.0000 1.0000
46.8400 9957.0000 1.0000
46.8600 9806.0000 1.0000
46.8800 9934.0000 1.0000
46.9000 9911.0000 1.0000
46.9200 10006.0000 1.0000
46.9400 9826.0000 1.0000
46.9600 10078.0000 1.0000
46.9800 10051.0000 1.0000
47.0000 9830.0000 1.0000
47.0200 9814.0000 1.0000
47.0400 10058.0000 1.0000
47.0600 9755.0000 1.0000
47.0800 9769.0000 1.0000
47.1000 10061.0000 1.0000
47.1200 10076.0000 1.0000
47.1400 9915.0000 1.0000
47.1600 10000.0000 1.0000
47.1800 9739.0000 1.0000
47.2000 9975.0000 1.0000
47.2200 9971.0000 1.0000
47.2400 10231.0000 1.0000
47.2600 9992.0000 1.0000
47.2800 9860.0000 1.0000
47.3000 10018.0000 1.0000
47.3200 9847.0000 1.0000
47.3400 9993.0000 1.0000
47.3600 9960.0000 1.0000
47.3800 10019.0000 1.0000
47.4000 10097.0000 1.0000
47.4200 9949.0000 1.0000
47.4400 10069.0000 1.0000
47.4600 9890.0000 1.0000
47.4800 9881.0000 1.0000
47.5000 10073.0000 1.0000
47.5200 9910.0000 1.0000
47.5400 10004.0000 1.0000
47.5600 9838.0000 1.0000
47.5800 9932.0000 1.0000
47.6000 9880.0000 1.0000
47.6200 10067.0000 1.0000
47.6400 9939.0000 1.0000
47.6600 10132.0000 1.0000
47.6800 10021.0000 1.0000
47.7000 10192.0000 1.0000
47.7200 9950.0000 1.0000
47.7400 10058.0000 1.0000
47.7600 9892.0000 1.0000
47.7800 9988.0000 1.0000
47.8000 10001.0000 1.0000
47.8200 10113.0000 1.0000
47.8400 10017.0000 1.0000
47.8600 9937.0000 1.0000
47.8800 9918.0000 1.0000
47.9000 9898.0000 1.0000
47.9200 10065.0000 1.0000
47.9400 9990.0000 1.0000
47.9600 9973.0000 1.0000
47.9800 9870.0000 1.0000
48.0000 9985.0000 1.0000
48.0200 10016.0000 1.0000
48.0400 9951.0000 1.0000
48.0600 10036.0000 1.0000
48.0800 9930.0000 1.0000
48.1000 9911.0000 1.0000
48.1200 10056.0000 1.0000
48.1400 9793.0000 1.0000
48.1600 9952.0000 1.0000
48.1800 9871.0000 1.0000
48.2000 10033.0000 1.0000
48.2200 10018.0000 1.0000
48.2400 9867.0000 1.0000
48.2600 9906.0000 1.0000
48.2800 10018.0000 1.0000
48.3000 10157.0000 1.0000
48.3200 10050.0000 1.0000
48.3400 9950.0000 1.0000
48.3600 10101.0000 1.0000
48.3800 10124.0000 1.0000
48.4000 10001.0000 1.0000
48.4200 10052.0000 1.0000
48.4400 10077.0000 1.0000
48.4600 9929.0000 1.0000
48.4800 10052.0000 1.0000
48.5000 10059.0000 1.0000
48.5200 10116.0000 1.0000
48.5400 10084.0000 1.0000
48.5600 10017.0000 1.0000
48.5800 10159.0000 1.0000
48.6000 9995.0000 1.0000
48.6200 10017.0000 1.0000
48.6400 9953.0000 1.0000
48.6600 9945.0000 1.0000
48.6800 10001.0000 1.0000
48.7000 9860.0000 1.0000
48.7200 10074.0000 1.0000
48.7400 10155.0000 1.0000
48.7600 9897.0000 1.0000
48.7800 10046.0000 1.0000
48.8000 10001.0000 1.0000
48.8200 10065.0000 1.0000
48.8400 10076.0000 1.0000
48.8600 10064.0000 1.0000
48.8800 10184.0000 1.0000
48.9000 10126.0000 1.0000
48.9200 10046.0000 1.0000
48.9400 10233.0000 1.0000
48.9600 9839.0000 1.0000
48.9800 10034.0000 1.0000
49.0000 10114.0000 1.0000
49.0200 9948.0000 1.0000
49.0400 10073.0000 1.0000
49.0600 10046.0000 1.0000
49.0800 10056.0000 1.0000
49.1000 10021.0000 1.0000
49.1200 10105.0000 1.0000
49.1400 10071.0000 1.0000
49.1600 10178.0000 1.0000
49.1800 10144.0000 1.0000
49.2000 10078.0000 1.0000
49.2200 10369.0000 1.0000
49.2400 10402.0000 1.0000
49.2600 10358.0000 1.0000
49.2800 10412.0000 1.0000
49.3000 10521.0000 1.0000
49.3200 10692.0000 1.0000
49.3400 10917.0000 1.0000
49.3600 10938.0000 1.0000
49.3800 11209.0000 1.0000
49.4000 11517.0000 1.0000
49.4200 11977.0000 1.0000
49.4400 12948.0000 1.0000
49.4600 13804.0000 1.0000
49.4800 14387.0000 1.0000
49.5000 14391.0000 1.0000
49.5200 14181.0000 1.0000
49.5400 13373.0000 1.0000
49.5600 12836.0000 1.0000
49.5800 12657.0000 1.0000
49.6000 12816.0000 1.0000
49.6200 12661.0000 1.0000
49.6400 12578.0000 1.0000
49.6600 12081.0000 1.0000
49.6800 11438.0000 1.0000
49.7000 10921.0000 1.0000
49.7200 10777.0000 1.0000
49.7400 10799.0000 1.0000
49.7600 10597.0000 1.0000
49.7800 10392.0000 1.0000
49.8000 10110.0000 1.0000
49.8200 10396.0000 1.0000
49.8400 10318.0000 1.0000
49.8600 10298.0000 1.0000
49.8800 10278.0000 1.0000
49.9000 10281.0000 1.0000
49.9200 10111.0000 1.0000
49.9400 10338.0000 1.0000
49.9600 10282.0000 1.0000
49.9800 10243.0000 1.0000
50.0000 10314.0000 1.0000
50.0200 10292.0000 1.0000
50.0400 10486.0000 1.0000
50.0600 10664.0000 1.0000
50.0800 11004.0000 1.0000
50.1000 11851.0000 1.0000
50.1200 13110.0000 1.0000
50.1400 15155.0000 1.0000
50.1600 15818.0000 1.0000
50.1800 14144.0000 1.0000
50.2000 12263.0000 1.0000
50.2200 11687.0000 1.0000
50.2400 11450.0000 1.0000
50.2600 12159.0000 1.0000
50.2800 13057.0000 1.0000
50.3000 12936.0000 1.0000
50.3200 11803.0000 1.0000
50.3400 10974.0000 1.0000
50.3600 10554.0000 1.0000
50.3800 10175.0000 1.0000
50.4000 10212.0000 1.0000
50.4200 10098.0000 1.0000
50.4400 9966.0000 1.0000
50.4600 10087.0000 1.0000
50.4800 9900.0000 1.0000
50.5000 9952.0000 1.0000
50.5200 10246.0000 1.0000
50.5400 9827.0000 1.0000
50.5600 9874.0000 1.0000
50.5800 10226.0000 1.0000
50.6000 10123.0000 1.0000
50.6200 10201.0000 1.0000
50.6400 10036.0000 1.0000
50.6600 9942.0000 1.0000
50.6800 10173.0000 1.0000
50.7000 10213.0000 1.0000
50.7200 10072.0000 1.0000
50.7400 10063.0000 1.0000
50.7600 9986.0000 1.0000
50.7800 10148.0000 1.0000
50.8000 10051.0000 1.0000
50.8200 10016.0000 1.0000
50.8400 10089.0000 1.0000
50.8600 10006.0000 1.0000
50.8800 10074.0000 1.0000
50.9000 10014.0000 1.0000
50.9200 9897.0000 1.0000
50.9400 10057.0000 1.0000
50.9600 10124.0000 1.0000
50.9800 10141.0000 1.0000
51.0000 10058.0000 1.0000
51.0200 9952.0000 1.0000
51.0400 10010.0000 1.0000
51.0600 9925.0000 1.0000
51.0800 9873.0000 1.0000
51.1000 9970.0000 1.0000
51.1200 9967.0000 1.0000
51.1400 10186.0000 1.0000
51.1600 9929.0000 1.0000
51.1800 10010.0000 1.0000
51.2000 10011.0000 1.0000
51.2200 9923.0000 1.0000
51.2400 9797.0000 1.0000
51.2600 10042.0000 1.0000
51.2800 9993.0000 1.0000
51.3000 9858.0000 1.0000
51.3200 9971.0000 1.0000
51.3400 9942.0000 1.0000
51.3600 10117.0000 1.0000
51.3800 9955.0000 1.0000
51.4000 10017.0000 1.0000
51.4200 9960.0000 1.0000
51.4400 10003.0000 1.0000
51.4600 10032.0000 1.0000
51.4800 9960.0000 1.0000
51.5000 10045.0000 1.0000
51.5200 9858.0000 1.0000
51.5400 10005.0000 1.0000
51.5600 9934.0000 1.0000
51.5800 10023.0000 1.0000
51.6000 9906.0000 1.0000
51.6200 10078.0000 1.0000
51.6400 9987.0000 1.0000
51.6600 9987.0000 1.0000
51.6800 10064.0000 1.0000
51.7000 9904.0000 1.0000
51.7200 10029.0000 1.0000
51.7400 10159.0000 1.0000
51.7600 9942.0000 1.0000
51.7800 10194.0000 1.0000
51.8000 10178.0000 1.0000
51.8200 10001.0000 1.0000
51.8400 9892.0000 1.0000
51.8600 9988.0000 1.0000
51.8800 9979.0000 1.0000
51.9000 9983.0000 1.0000
51.9200 9945.0000 1.0000
51.9400 9907.0000 1.0000
51.9600 10066.0000 1.0000
51.9800 10076.0000 1.0000
52.0000 10152.0000 1.0000
52.0200 10088.0000 1.0000
52.0400 10088.0000 1.0000
52.0600 10029.0000 1.0000
52.0800 9977.0000 1.0000
52.1000 10125.0000 1.0000
52.1200 10105.0000 1.0000
52.1400 10079.0000 1.0000
52.1600 10265.0000 1.0000
52.1800 9998.0000 1.0000
52.2000 10190.0000 1.0000
52.2200 10064.0000 1.0000
52.2400 10062.0000 1.0000
52.2600 10135.0000 1.0000
52.2800 10010.0000 1.0000
52.3000 10051.0000 1.0000
52.3200 10070.0000 1.0000
52.3400 10013.0000 1.0000
52.3600 10145.0000 1.0000
52.3800 10187.0000 1.0000
52.4000 10142.0000 1.0000
52.4200 10154.0000 1.0000
52.4400 10166.0000 1.0000
52.4600 10392.0000 1.0000
52.4800 10386.0000 1.0000
52.5000 10424.0000 1.0000
52.5200 10848.0000 1.0000
52.5400 10704.0000 1.0000
52.5600 10863.0000 1.0000
52.5800 10840.0000 1.0000
52.6000 10995.0000 1.0000
52.6200 10732.0000 1.0000
52.6400 10537.0000 1.0000
52.6600 10775.0000 1.0000
52.6800 10657.0000 1.0000
52.7000 10573.0000 1.0000
52.7200 10645.0000 1.0000
52.7400 10575.0000 1.0000
52.7600 10274.0000 1.0000
52.7800 10283.0000 1.0000
52.8000 10166.0000 1.0000
52.8200 10293.0000 1.0000
52.8400 10052.0000 1.0000
52.8600 10149.0000 1.0000
52.8800 10097.0000 1.0000
52.9000 9985.0000 1.0000
52.9200 10095.0000 1.0000
52.9400 10099.0000 1.0000
52.9600 10126.0000 1.0000
52.9800 9990.0000 1.0000
53.0000 9961.0000 1.0000
53.0200 10102.0000 1.0000
53.0400 10085.0000 1.0000
53.0600 10037.0000 1.0000
53.0800 9988.0000 1.0000
53.1000 10111.0000 1.0000
53.1200 9948.0000 1.0000
53.1400 10082.0000 1.0000
53.1600 10129.0000 1.0000
53.1800 10004.0000 1.0000
53.2000 9998.0000 1.0000
53.2200 10025.0000 1.0000
53.2400 10088.0000 1.0000
53.2600 9972.0000 1.0000
53.2800 9981.0000 1.0000
53.3000 9933.0000 1.0000
53.3200 10072.0000 1.0000
53.3400 10089.0000 1.0000
53.3600 10208.0000 1.0000
53.3800 10228.0000 1.0000
53.4000 10327.0000 1.0000
53.4200 10245.0000 1.0000
53.4400 10314.0000 1.0000
53.4600 10373.0000 1.0000
53.4800 10582.0000 1.0000
53.5000 10627.0000 1.0000
53.5200 10563.0000 1.0000
53.5400 10721.0000 1.0000
53.5600 10589.0000 1.0000
53.5800 10545.0000 1.0000
53.6000 10696.0000 1.0000
53.6200 10521.0000 1.0000
53.6400 10490.0000 1.0000
53.6600 10664.0000 1.0000
53.6800 10545.0000 1.0000
53.7000 10500.0000 1.0000
53.7200 10543.0000 1.0000
53.7400 10385.0000 1.0000
53.7600 10334.0000 1.0000
53.7800 10503.0000 1.0000
53.8000 10163.0000 1.0000
53.8200 10284.0000 1.0000
53.8400 10696.0000 1.0000
53.8600 10522.0000 1.0000
53.8800 10743.0000 1.0000
53.9000 10665.0000 1.0000
53.9200 10767.0000 1.0000
53.9400 10901.0000 1.0000
53.9600 11201.0000 1.0000
53.9800 11438.0000 1.0000
54.0000 11675.0000 1.0000
54.0200 12310.0000 1.0000
54.0400 13178.0000 1.0000
54.0600 14186.0000 1.0000
54.0800 15123.0000 1.0000
54.1000 15286.0000 1.0000
54.1200 14961.0000 1.0000
54.1400 14338.0000 1.0000
54.1600 13281.0000 1.0000
54.1800 12958.0000 1.0000
54.2000 13084.0000 1.0000
54.2200 13219.0000 1.0000
54.2400 13273.0000 1.0000
54.2600 12797.0000 1.0000
54.2800 12159.0000 1.0000
54.3000 11717.0000 1.0000
54.3200 11141.0000 1.0000
54.3400 10911.0000 1.0000
54.3600 10864.0000 1.0000
54.3800 10794.0000 1.0000
54.4000 10572.0000 1.0000
54.4200 10213.0000 1.0000
54.4400 10285.0000 1.0000
54.4600 10260.0000 1.0000
54.4800 10408.0000 1.0000
54.5000 10126.0000 1.0000
54.5200 10156.0000 1.0000
54.5400 10026.0000 1.0000
54.5600 10111.0000 1.0000
54.5800 10181.0000 1.0000
54.6000 10158.0000 1.0000
54.6200 10124.0000 1.0000
54.6400 10171.0000 1.0000
54.6600 10161.0000 1.0000
54.6800 10172.0000 1.0000
54.7000 10158.0000 1.0000
54.7200 10137.0000 1.0000
54.7400 10349.0000 1.0000
54.7600 10068.0000 1.0000
54.7800 10130.0000 1.0000
54.8000 10370.0000 1.0000
54.8200 10397.0000 1.0000
54.8400 10301.0000 1.0000
54.8600 10926.0000 1.0000
54.8800 11287.0000 1.0000
54.9000 11302.0000 1.0000
54.9200 11076.0000 1.0000
54.9400 10774.0000 1.0000
54.9600 10408.0000 1.0000
54.9800 10362.0000 1.0000
55.0000 10675.0000 1.0000
55.0200 10874.0000 1.0000
55.0400 10951.0000 1.0000
55.0600 10720.0000 1.0000
55.0800 10666.0000 1.0000
55.1000 10403.0000 1.0000
55.1200 10013.0000 1.0000
55.1400 10236.0000 1.0000
55.1600 10128.0000 1.0000
55.1800 10039.0000 1.0000
55.2000 9936.0000 1.0000
55.2200 10223.0000 1.0000
55.2400 10048.0000 1.0000
55.2600 10106.0000 1.0000
55.2800 10125.0000 1.0000
55.3000 10234.0000 1.0000
55.3200 10472.0000 1.0000
55.3400 10433.0000 1.0000
55.3600 10578.0000 1.0000
55.3800 10249.0000 1.0000
55.4000 10074.0000 1.0000
55.4200 10225.0000 1.0000
55.4400 10241.0000 1.0000
55.4600 10248.0000 1.0000
55.4800 10077.0000 1.0000
55.5000 10209.0000 1.0000
55.5200 10129.0000 1.0000
55.5400 10231.0000 1.0000
55.5600 10073.0000 1.0000
55.5800 10031.0000 1.0000
55.6000 10008.0000 1.0000
55.6200 10076.0000 1.0000
55.6400 10008.0000 1.0000
55.6600 10005.0000 1.0000
55.6800 10026.0000 1.0000
55.7000 9844.0000 1.0000
55.7200 9933.0000 1.0000
55.7400 9844.0000 1.0000
55.7600 10003.0000 1.0000
55.7800 9957.0000 1.0000
55.8000 10052.0000 1.0000
55.8200 9999.0000 1.0000
55.8400 10044.0000 1.0000
55.8600 10210.0000 1.0000
55.8800 10107.0000 1.0000
55.9000 9916.0000 1.0000
55.9200 10026.0000 1.0000
55.9400 10199.0000 1.0000
55.9600 10131.0000 1.0000
55.9800 10046.0000 1.0000
56.0000 10028.0000 1.0000
56.0200 9881.0000 1.0000
56.0400 10015.0000 1.0000
56.0600 9985.0000 1.0000
56.0800 10120.0000 1.0000
56.1000 10201.0000 1.0000
56.1200 10039.0000 1.0000
56.1400 9817.0000 1.0000
56.1600 10082.0000 1.0000
56.1800 10173.0000 1.0000
56.2000 10221.0000 1.0000
56.2200 10032.0000 1.0000
56.2400 9877.0000 1.0000
56.2600 10021.0000 1.0000
56.2800 10153.0000 1.0000
56.3000 10089.0000 1.0000
56.3200 10108.0000 1.0000
56.3400 10035.0000 1.0000
56.3600 10191.0000 1.0000
56.3800 10036.0000 1.0000
56.4000 10098.0000 1.0000
56.4200 10175.0000 1.0000
56.4400 10040.0000 1.0000
56.4600 10133.0000 1.0000
56.4800 10006.0000 1.0000
56.5000 10116.0000 1.0000
56.5200 10081.0000 1.0000
56.5400 10204.0000 1.0000
56.5600 10113.0000 1.0000
56.5800 9955.0000 1.0000
56.6000 10128.0000 1.0000
56.6200 9867.0000 1.0000
56.6400 10134.0000 1.0000
56.6600 9967.0000 1.0000
56.6800 10096.0000 1.0000
56.7000 10075.0000 1.0000
56.7200 10295.0000 1.0000
56.7400 10133.0000 1.0000
56.7600 10188.0000 1.0000
56.7800 10111.0000 1.0000
56.8000 10429.0000 1.0000
56.8200 10243.0000 1.0000
56.8400 10341.0000 1.0000
56.8600 10284.0000 1.0000
56.8800 10428.0000 1.0000
56.9000 10537.0000 1.0000
56.9200 10615.0000 1.0000
56.9400 10665.0000 1.0000
56.9600 10769.0000 1.0000
56.9800 11102.0000 1.0000
57.0000 11403.0000 1.0000
57.0200 11727.0000 1.0000
57.0400 11988.0000 1.0000
57.0600 12259.0000 1.0000
57.0800 11995.0000 1.0000
57.1000 11827.0000 1.0000
57.1200 11690.0000 1.0000
57.1400 11496.0000 1.0000
57.1600 11484.0000 1.0000
57.1800 11619.0000 1.0000
57.2000 11843.0000 1.0000
57.2200 11699.0000 1.0000
57.2400 11515.0000 1.0000
57.2600 11522.0000 1.0000
57.2800 11271.0000 1.0000
57.3000 10970.0000 1.0000
57.3200 11063.0000 1.0000
57.3400 11116.0000 1.0000
57.3600 10916.0000 1.0000
57.3800 10961.0000 1.0000
57.4000 11328.0000 1.0000
57.4200 11262.0000 1.0000
57.4400 11532.0000 1.0000
57.4600 12030.0000 1.0000
57.4800 12314.0000 1.0000
57.5000 12698.0000 1.0000
57.5200 12874.0000 1.0000
57.5400 12459.0000 1.0000
57.5600 12313.0000 1.0000
57.5800 12128.0000 1.0000
57.6000 12201.0000 1.0000
57.6200 12346.0000 1.0000
57.6400 12373.0000 1.0000
57.6600 12263.0000 1.0000
57.6800 12048.0000 1.0000
57.7000 11596.0000 1.0000
57.7200 11388.0000 1.0000
57.7400 11320.0000 1.0000
57.7600 11131.0000 1.0000
57.7800 10869.0000 1.0000
57.8000 10921.0000 1.0000
57.8200 10743.0000 1.0000
57.8400 10557.0000 1.0000
57.8600 10502.0000 1.0000
57.8800 10413.0000 1.0000
57.9000 10360.0000 1.0000
57.9200 10231.0000 1.0000
57.9400 10324.0000 1.0000
57.9600 10325.0000 1.0000
57.9800 10414.0000 1.0000
58.0000 10062.0000 1.0000
58.0200 10089.0000 1.0000
58.0400 10042.0000 1.0000
58.0600 10113.0000 1.0000
58.0800 10127.0000 1.0000
58.1000 9975.0000 1.0000
58.1200 9862.0000 1.0000
58.1400 10175.0000 1.0000
58.1600 10135.0000 1.0000
58.1800 10155.0000 1.0000
58.2000 10076.0000 1.0000
58.2200 10079.0000 1.0000
58.2400 10004.0000 1.0000
58.2600 10143.0000 1.0000
58.2800 9984.0000 1.0000
58.3000 10215.0000 1.0000
58.3200 10074.0000 1.0000
58.3400 10080.0000 1.0000
58.3600 10126.0000 1.0000
58.3800 10073.0000 1.0000
58.4000 10036.0000 1.0000
58.4200 9983.0000 1.0000
58.4400 10175.0000 1.0000
58.4600 9978.0000 1.0000
58.4800 10213.0000 1.0000
58.5000 10118.0000 1.0000
58.5200 10042.0000 1.0000
58.5400 10104.0000 1.0000
58.5600 9964.0000 1.0000
58.5800 10157.0000 1.0000
58.6000 10165.0000 1.0000
58.6200 10089.0000 1.0000
58.6400 10064.0000 1.0000
58.6600 10205.0000 1.0000
58.6800 10117.0000 1.0000
58.7000 10057.0000 1.0000
58.7200 10164.0000 1.0000
58.7400 9953.0000 1.0000
58.7600 10087.0000 1.0000
58.7800 9975.0000 1.0000
58.8000 10172.0000 1.0000
58.8200 10092.0000 1.0000
58.8400 10058.0000 1.0000
58.8600 9911.0000 1.0000
58.8800 9910.0000 1.0000
58.9000 10193.0000 1.0000
58.9200 10051.0000 1.0000
58.9400 10238.0000 1.0000
58.9600 10029.0000 1.0000
58.9800 9972.0000 1.0000
59.0000 10164.0000 1.0000
59.0200 10144.0000 1.0000
59.0400 10119.0000 1.0000
59.0600 9928.0000 1.0000
59.0800 10075.0000 1.0000
59.1000 10202.0000 1.0000
59.1200 10244.0000 1.0000
59.1400 10159.0000 1.0000
59.1600 10073.0000 1.0000
59.1800 10063.0000 1.0000
59.2000 9972.0000 1.0000
59.2200 9889.0000 1.0000
59.2400 10137.0000 1.0000
59.2600 10085.0000 1.0000
59.2800 10088.0000 1.0000
59.3000 9977.0000 1.0000
59.3200 10080.0000 1.0000
59.3400 10149.0000 1.0000
59.3600 10104.0000 1.0000
59.3800 9976.0000 1.0000
59.4000 9897.0000 1.0000
59.4200 10025.0000 1.0000
59.4400 10074.0000 1.0000
59.4600 10248.0000 1.0000
59.4800 10185.0000 1.0000
59.5000 10222.0000 1.0000
59.5200 10112.0000 1.0000
59.5400 9902.0000 1.0000
59.5600 10174.0000 1.0000
59.5800 10208.0000 1.0000
59.6000 10086.0000 1.0000
59.6200 9898.0000 1.0000
59.6400 10014.0000 1.0000
59.6600 10063.0000 1.0000
59.6800 10238.0000 1.0000
59.7000 10100.0000 1.0000
59.7200 10107.0000 1.0000
59.7400 10308.0000 1.0000
59.7600 10249.0000 1.0000
59.7800 10196.0000 1.0000
59.8000 10333.0000 1.0000
59.8200 10207.0000 1.0000
59.8400 10173.0000 1.0000
59.8600 10272.0000 1.0000
59.8800 10640.0000 1.0000
59.9000 10698.0000 1.0000
59.9200 10946.0000 1.0000
59.9400 11681.0000 1.0000
59.9600 12807.0000 1.0000
59.9800 13557.0000 1.0000
60.0000 13015.0000 1.0000
60.0200 11862.0000 1.0000
60.0400 11211.0000 1.0000
60.0600 10901.0000 1.0000
60.0800 10724.0000 1.0000
60.1000 11043.0000 1.0000
60.1200 11490.0000 1.0000
60.1400 11945.0000 1.0000
60.1600 11765.0000 1.0000
60.1800 11055.0000 1.0000
60.2000 10515.0000 1.0000
60.2200 10366.0000 1.0000
60.2400 10405.0000 1.0000
60.2600 10431.0000 1.0000
60.2800 10250.0000 1.0000
60.3000 10082.0000 1.0000
60.3200 10162.0000 1.0000
60.3400 10120.0000 1.0000
60.3600 10163.0000 1.0000
60.3800 10009.0000 1.0000
60.4000 10074.0000 1.0000
60.4200 10234.0000 1.0000
60.4400 10117.0000 1.0000
60.4600 10004.0000 1.0000
60.4800 10098.0000 1.0000
60.5000 10178.0000 1.0000
60.5200 10237.0000 1.0000
60.5400 10148.0000 1.0000
60.5600 10302.0000 1.0000
60.5800 10102.0000 1.0000
60.6000 10059.0000 1.0000
60.6200 9975.0000 1.0000
60.6400 9882.0000 1.0000
60.6600 10119.0000 1.0000
60.6800 10223.0000 1.0000
60.7000 10074.0000 1.0000
60.7200 10166.0000 1.0000
60.7400 10105.0000 1.0000
60.7600 9969.0000 1.0000
60.7800 10041.0000 1.0000
60.8000 9899.0000 1.0000
60.8200 10083.0000 1.0000
60.8400 10073.0000 1.0000
60.8600 10153.0000 1.0000
60.8800 10004.0000 1.0000
60.9000 10216.0000 1.0000
60.9200 10087.0000 1.0000
60.9400 10019.0000 1.0000
60.9600 9934.0000 1.0000
60.9800 10047.0000 1.0000
61.0000 10160.0000 1.0000
61.0200 10129.0000 1.0000
61.0400 10231.0000 1.0000
61.0600 10066.0000 1.0000
61.0800 10172.0000 1.0000
61.1000 10135.0000 1.0000
61.1200 10078.0000 1.0000
61.1400 10269.0000 1.0000
61.1600 10253.0000 1.0000
61.1800 9973.0000 1.0000
61.2000 10362.0000 1.0000
61.2200 10219.0000 1.0000
61.2400 10265.0000 1.0000
61.2600 10243.0000 1.0000
61.2800 10191.0000 1.0000
61.3000 10439.0000 1.0000
61.3200 10205.0000 1.0000
61.3400 10281.0000 1.0000
61.3600 10330.0000 1.0000
61.3800 10316.0000 1.0000
61.4000 10187.0000 1.0000
61.4200 10300.0000 1.0000
61.4400 10204.0000 1.0000
61.4600 10151.0000 1.0000
61.4800 10151.0000 1.0000
61.5000 10307.0000 1.0000
61.5200 10162.0000 1.0000
61.5400 10095.0000 1.0000
61.5600 10051.0000 1.0000
61.5800 10068.0000 1.0000
61.6000 10130.0000 1.0000
61.6200 10167.0000 1.0000
61.6400 10102.0000 1.0000
61.6600 10130.0000 1.0000
61.6800 10129.0000 1.0000
61.7000 9928.0000 1.0000
61.7200 10087.0000 1.0000
61.7400 10081.0000 1.0000
61.7600 10056.0000 1.0000
61.7800 10196.0000 1.0000
61.8000 10249.0000 1.0000
61.8200 10164.0000 1.0000
61.8400 10148.0000 1.0000
61.8600 10161.0000 1.0000
61.8800 10079.0000 1.0000
61.9000 10145.0000 1.0000
61.9200 10204.0000 1.0000
61.9400 10137.0000 1.0000
61.9600 10155.0000 1.0000
61.9800 10014.0000 1.0000
62.0000 10168.0000 1.0000
62.0200 10238.0000 1.0000
62.0400 10291.0000 1.0000
62.0600 10236.0000 1.0000
62.0800 10296.0000 1.0000
62.1000 10305.0000 1.0000
62.1200 10165.0000 1.0000
62.1400 10195.0000 1.0000
62.1600 10064.0000 1.0000
62.1800 10467.0000 1.0000
62.2000 10442.0000 1.0000
62.2200 10437.0000 1.0000
62.2400 10314.0000 1.0000
62.2600 10519.0000 1.0000
62.2800 10794.0000 1.0000
62.3000 10801.0000 1.0000
62.3200 10954.0000 1.0000
62.3400 11035.0000 1.0000
62.3600 11445.0000 1.0000
62.3800 11966.0000 1.0000
62.4000 12141.0000 1.0000
62.4200 12988.0000 1.0000
62.4400 13566.0000 1.0000
62.4600 14139.0000 1.0000
62.4800 13756.0000 1.0000
62.5000 13208.0000 1.0000
62.5200 12759.0000 1.0000
62.5400 12848.0000 1.0000
62.5600 13168.0000 1.0000
62.5800 13406.0000 1.0000
62.6000 13806.0000 1.0000
62.6200 14614.0000 1.0000
62.6400 14569.0000 1.0000
62.6600 14472.0000 1.0000
62.6800 14028.0000 1.0000
62.7000 13492.0000 1.0000
62.7200 12991.0000 1.0000
62.7400 12731.0000 1.0000
62.7600 12570.0000 1.0000
62.7800 12407.0000 1.0000
62.8000 12407.0000 1.0000
62.8200 12140.0000 1.0000
62.8400 12128.0000 1.0000
62.8600 11763.0000 1.0000
62.8800 11551.0000 1.0000
62.9000 11341.0000 1.0000
62.9200 11062.0000 1.0000
62.9400 11048.0000 1.0000
62.9600 10812.0000 1.0000
62.9800 10788.0000 1.0000
63.0000 10443.0000 1.0000
63.0200 10495.0000 1.0000
63.0400 10424.0000 1.0000
63.0600 10472.0000 1.0000
63.0800 10342.0000 1.0000
63.1000 10487.0000 1.0000
63.1200 10410.0000 1.0000
63.1400 10356.0000 1.0000
63.1600 10251.0000 1.0000
63.1800 10151.0000 1.0000
63.2000 10375.0000 1.0000
63.2200 10377.0000 1.0000
63.2400 10395.0000 1.0000
63.2600 10392.0000 1.0000
63.2800 10065.0000 1.0000
63.3000 10402.0000 1.0000
63.3200 10230.0000 1.0000
63.3400 10293.0000 1.0000
63.3600 10152.0000 1.0000
63.3800 10121.0000 1.0000
63.4000 10171.0000 1.0000
63.4200 10229.0000 1.0000
63.4400 10058.0000 1.0000
63.4600 10242.0000 1.0000
63.4800 10337.0000 1.0000
63.5000 10065.0000 1.0000
63.5200 10138.0000 1.0000
63.5400 10205.0000 1.0000
63.5600 10056.0000 1.0000
63.5800 10122.0000 1.0000
63.6000 10249.0000 1.0000
63.6200 10383.0000 1.0000
63.6400 10117.0000 1.0000
63.6600 10234.0000 1.0000
63.6800 10312.0000 1.0000
63.7000 10229.0000 1.0000
63.7200 10196.0000 1.0000
63.7400 10234.0000 1.0000
63.7600 10343.0000 1.0000
63.7800 10163.0000 1.0000
63.8000 10475.0000 1.0000
63.8200 10438.0000 1.0000
63.8400 10587.0000 1.0000
63.8600 10761.0000 1.0000
63.8800 10778.0000 1.0000
63.9000 10773.0000 1.0000
63.9200 11091.0000 1.0000
63.9400 11476.0000 1.0000
63.9600 12113.0000 1.0000
63.9800 12494.0000 1.0000
64.0000 13287.0000 1.0000
64.0200 13628.0000 1.0000
64.0400 13803.0000 1.0000
64.0600 13477.0000 1.0000
64.0800 12672.0000 1.0000
64.1000 12284.0000 1.0000
64.1200 11741.0000 1.0000
64.1400 11978.0000 1.0000
64.1600 11944.0000 1.0000
64.1800 12023.0000 1.0000
64.2000 12231.0000 1.0000
64.2200 12380.0000 1.0000
64.2400 11813.0000 1.0000
64.2600 11437.0000 1.0000
64.2800 11000.0000 1.0000
64.3000 10924.0000 1.0000
64.3200 10668.0000 1.0000
64.3400 10528.0000 1.0000
64.3600 10394.0000 1.0000
64.3800 10512.0000 1.0000
64.4000 10313.0000 1.0000
64.4200 10093.0000 1.0000
64.4400 10236.0000 1.0000
64.4600 10266.0000 1.0000
64.4800 10260.0000 1.0000
64.5000 10315.0000 1.0000
64.5200 10136.0000 1.0000
64.5400 10017.0000 1.0000
64.5600 10133.0000 1.0000
64.5800 10102.0000 1.0000
64.6000 10222.0000 1.0000
64.6200 10272.0000 1.0000
64.6400 10111.0000 1.0000
64.6600 10200.0000 1.0000
64.6800 10003.0000 1.0000
64.7000 9955.0000 1.0000
64.7200 10182.0000 1.0000
64.7400 10260.0000 1.0000
64.7600 9903.0000 1.0000
64.7800 10209.0000 1.0000
64.8000 10091.0000 1.0000
64.8200 9914.0000 1.0000
64.8400 10039.0000 1.0000
64.8600 10113.0000 1.0000
64.8800 10029.0000 1.0000
64.9000 9963.0000 1.0000
64.9200 10189.0000 1.0000
64.9400 10066.0000 1.0000
64.9600 10048.0000 1.0000
64.9800 10155.0000 1.0000
65.0000 10074.0000 1.0000
65.0200 10287.0000 1.0000
65.0400 10111.0000 1.0000
65.0600 10016.0000 1.0000
65.0800 10087.0000 1.0000
65.1000 10148.0000 1.0000
65.1200 10110.0000 1.0000
65.1400 9993.0000 1.0000
65.1600 10226.0000 1.0000
65.1800 10065.0000 1.0000
65.2000 10151.0000 1.0000
65.2200 10266.0000 1.0000
65.2400 10035.0000 1.0000
65.2600 10495.0000 1.0000
65.2800 10266.0000 1.0000
65.3000 9960.0000 1.0000
65.3200 10057.0000 1.0000
65.3400 10135.0000 1.0000
65.3600 10208.0000 1.0000
65.3800 10031.0000 1.0000
65.4000 10117.0000 1.0000
65.4200 10094.0000 1.0000
65.4400 10188.0000 1.0000
65.4600 10111.0000 1.0000
65.4800 10086.0000 1.0000
65.5000 10123.0000 1.0000
65.5200 10165.0000 1.0000
65.5400 10122.0000 1.0000
65.5600 10008.0000 1.0000
65.5800 10068.0000 1.0000
65.6000 10269.0000 1.0000
65.6200 10193.0000 1.0000
65.6400 10241.0000 1.0000
65.6600 10199.0000 1.0000
65.6800 10083.0000 1.0000
65.7000 10056.0000 1.0000
65.7200 10265.0000 1.0000
65.7400 10167.0000 1.0000
65.7600 10242.0000 1.0000
65.7800 10429.0000 1.0000
65.8000 10378.0000 1.0000
65.8200 10446.0000 1.0000
65.8400 10356.0000 1.0000
65.8600 10289.0000 1.0000
65.8800 10422.0000 1.0000
65.9000 10305.0000 1.0000
65.9200 10350.0000 1.0000
65.9400 10200.0000 1.0000
65.9600 10217.0000 1.0000
65.9800 10461.0000 1.0000
66.0000 10467.0000 1.0000
66.0200 10513.0000 1.0000
66.0400 10332.0000 1.0000
66.0600 10311.0000 1.0000
66.0800 10389.0000 1.0000
66.1000 10093.0000 1.0000
66.1200 10281.0000 1.0000
66.1400 10365.0000 1.0000
66.1600 10273.0000 1.0000
66.1800 10175.0000 1.0000
66.2000 10234.0000 1.0000
66.2200 10438.0000 1.0000
66.2400 10324.0000 1.0000
66.2600 10173.0000 1.0000
66.2800 10178.0000 1.0000
66.3000 10208.0000 1.0000
66.3200 10367.0000 1.0000
66.3400 10243.0000 1.0000
66.3600 10243.0000 1.0000
66.3800 10204.0000 1.0000
66.4000 10285.0000 1.0000
66.4200 10441.0000 1.0000
66.4400 10660.0000 1.0000
66.4600 10530.0000 1.0000
66.4800 10809.0000 1.0000
66.5000 10780.0000 1.0000
66.5200 10958.0000 1.0000
66.5400 10835.0000 1.0000
66.5600 10783.0000 1.0000
66.5800 10564.0000 1.0000
66.6000 10526.0000 1.0000
66.6200 10453.0000 1.0000
66.6400 10364.0000 1.0000
66.6600 10510.0000 1.0000
66.6800 10389.0000 1.0000
66.7000 10534.0000 1.0000
66.7200 10616.0000 1.0000
66.7400 10656.0000 1.0000
66.7600 10556.0000 1.0000
66.7800 10518.0000 1.0000
66.8000 10284.0000 1.0000
66.8200 10316.0000 1.0000
66.8400 10279.0000 1.0000
66.8600 10170.0000 1.0000
66.8800 10090.0000 1.0000
66.9000 10087.0000 1.0000
66.9200 10138.0000 1.0000
66.9400 10133.0000 1.0000
66.9600 10224.0000 1.0000
66.9800 10130.0000 1.0000
67.0000 10044.0000 1.0000
67.0200 10259.0000 1.0000
67.0400 10079.0000 1.0000
67.0600 10098.0000 1.0000
67.0800 10263.0000 1.0000
67.1000 10282.0000 1.0000
67.1200 10250.0000 1.0000
67.1400 10236.0000 1.0000
67.1600 10300.0000 1.0000
67.1800 10265.0000 1.0000
67.2000 10145.0000 1.0000
67.2200 10294.0000 1.0000
67.2400 10173.0000 1.0000
67.2600 10250.0000 1.0000
67.2800 10313.0000 1.0000
67.3000 10336.0000 1.0000
67.3200 10219.0000 1.0000
67.3400 10163.0000 1.0000
67.3600 10138.0000 1.0000
67.3800 9963.0000 1.0000
67.4000 10185.0000 1.0000
67.4200 10204.0000 1.0000
67.4400 10182.0000 1.0000
67.4600 10202.0000 1.0000
67.4800 10076.0000 1.0000
67.5000 10148.0000 1.0000
67.5200 10200.0000 1.0000
67.5400 10354.0000 1.0000
67.5600 10323.0000 1.0000
67.5800 10306.0000 1.0000
67.6000 10189.0000 1.0000
67.6200 10286.0000 1.0000
67.6400 10287.0000 1.0000
67.6600 10497.0000 1.0000
67.6800 10647.0000 1.0000
67.7000 10968.0000 1.0000
67.7200 11263.0000 1.0000
67.7400 12201.0000 1.0000
67.7600 12754.0000 1.0000
67.7800 12444.0000 1.0000
67.8000 11660.0000 1.0000
67.8200 11098.0000 1.0000
67.8400 10896.0000 1.0000
67.8600 10611.0000 1.0000
67.8800 10723.0000 1.0000
67.9000 10871.0000 1.0000
67.9200 11105.0000 1.0000
67.9400 11569.0000 1.0000
67.9600 11774.0000 1.0000
67.9800 11462.0000 1.0000
68.0000 11050.0000 1.0000
68.0200 10827.0000 1.0000
68.0400 10806.0000 1.0000
68.0600 10791.0000 1.0000
68.0800 11049.0000 1.0000
68.1000 11222.0000 1.0000
68.1200 11781.0000 1.0000
68.1400 12633.0000 1.0000
68.1600 13298.0000 1.0000
68.1800 14221.0000 1.0000
68.2000 13811.0000 1.0000
68.2200 12864.0000 1.0000
68.2400 12135.0000 1.0000
68.2600 11875.0000 1.0000
68.2800 11718.0000 1.0000
68.3000 12257.0000 1.0000
68.3200 12909.0000 1.0000
68.3400 13060.0000 1.0000
68.3600 12944.0000 1.0000
68.3800 12711.0000 1.0000
68.4000 12081.0000 1.0000
68.4200 11594.0000 1.0000
68.4400 11338.0000 1.0000
68.4600 11091.0000 1.0000
68.4800 10791.0000 1.0000
68.5000 10998.0000 1.0000
68.5200 10935.0000 1.0000
68.5400 10965.0000 1.0000
68.5600 10593.0000 1.0000
68.5800 10490.0000 1.0000
68.6000 10557.0000 1.0000
68.6200 10441.0000 1.0000
68.6400 10415.0000 1.0000
68.6600 10154.0000 1.0000
68.6800 10255.0000 1.0000
68.7000 10362.0000 1.0000
68.7200 10303.0000 1.0000
68.7400 10324.0000 1.0000
68.7600 10173.0000 1.0000
68.7800 10253.0000 1.0000
68.8000 10233.0000 1.0000
68.8200 10165.0000 1.0000
68.8400 10279.0000 1.0000
68.8600 10215.0000 1.0000
68.8800 10182.0000 1.0000
68.9000 10271.0000 1.0000
68.9200 10292.0000 1.0000
68.9400 10071.0000 1.0000
68.9600 10268.0000 1.0000
68.9800 10236.0000 1.0000
69.0000 10134.0000 1.0000
69.0200 10329.0000 1.0000
69.0400 10175.0000 1.0000
69.0600 10179.0000 1.0000
69.0800 10126.0000 1.0000
69.1000 10117.0000 1.0000
69.1200 10229.0000 1.0000
69.1400 10158.0000 1.0000
69.1600 10199.0000 1.0000
69.1800 10215.0000 1.0000
69.2000 10117.0000 1.0000
69.2200 10238.0000 1.0000
69.2400 10090.0000 1.0000
69.2600 10176.0000 1.0000
69.2800 10142.0000 1.0000
69.3000 10116.0000 1.0000
69.3200 10160.0000 1.0000
69.3400 9992.0000 1.0000
69.3600 10143.0000 1.0000
69.3800 10196.0000 1.0000
69.4000 10016.0000 1.0000
69.4200 10169.0000 1.0000
69.4400 10296.0000 1.0000
69.4600 10159.0000 1.0000
69.4800 10241.0000 1.0000
69.5000 10210.0000 1.0000
69.5200 10285.0000 1.0000
69.5400 10460.0000 1.0000
69.5600 10225.0000 1.0000
69.5800 10430.0000 1.0000
69.6000 10386.0000 1.0000
69.6200 10336.0000 1.0000
69.6400 10309.0000 1.0000
69.6600 10369.0000 1.0000
69.6800 10418.0000 1.0000
69.7000 10295.0000 1.0000
69.7200 10272.0000 1.0000
69.7400 10283.0000 1.0000
69.7600 10292.0000 1.0000
69.7800 10437.0000 1.0000
69.8000 10362.0000 1.0000
69.8200 10419.0000 1.0000
69.8400 10220.0000 1.0000
69.8600 10147.0000 1.0000
69.8800 10232.0000 1.0000
69.9000 10245.0000 1.0000
69.9200 10098.0000 1.0000
69.9400 10148.0000 1.0000
69.9600 10186.0000 1.0000
69.9800 10221.0000 1.0000
70.0000 10150.0000 1.0000
70.0200 10153.0000 1.0000
70.0400 10136.0000 1.0000
70.0600 10109.0000 1.0000
70.0800 10259.0000 1.0000
70.1000 10291.0000 1.0000
70.1200 10274.0000 1.0000
70.1400 10148.0000 1.0000
70.1600 10164.0000 1.0000
70.1800 10140.0000 1.0000
70.2000 10076.0000 1.0000
70.2200 10168.0000 1.0000
70.2400 10252.0000 1.0000
70.2600 10272.0000 1.0000
70.2800 10303.0000 1.0000
70.3000 10299.0000 1.0000
70.3200 10125.0000 1.0000
70.3400 10191.0000 1.0000
70.3600 10052.0000 1.0000
70.3800 10084.0000 1.0000
70.4000 10136.0000 1.0000
70.4200 10067.0000 1.0000
70.4400 10293.0000 1.0000
70.4600 10231.0000 1.0000
70.4800 10102.0000 1.0000
70.5000 10277.0000 1.0000
70.5200 10046.0000 1.0000
70.5400 10125.0000 1.0000
70.5600 10227.0000 1.0000
70.5800 10163.0000 1.0000
70.6000 10084.0000 1.0000
70.6200 10147.0000 1.0000
70.6400 10030.0000 1.0000
70.6600 10159.0000 1.0000
70.6800 10319.0000 1.0000
70.7000 10274.0000 1.0000
70.7200 10372.0000 1.0000
70.7400 10270.0000 1.0000
70.7600 10130.0000 1.0000
70.7800 10212.0000 1.0000
70.8000 10153.0000 1.0000
70.8200 10157.0000 1.0000
70.8400 10155.0000 1.0000
70.8600 10220.0000 1.0000
70.8800 10025.0000 1.0000
70.9000 10251.0000 1.0000
70.9200 10149.0000 1.0000
70.9400 10305.0000 1.0000
70.9600 10221.0000 1.0000
70.9800 10392.0000 1.0000
71.0000 10355.0000 1.0000
71.0200 10226.0000 1.0000
71.0400 10221.0000 1.0000
71.0600 10331.0000 1.0000
71.0800 10224.0000 1.0000
71.1000 10133.0000 1.0000
71.1200 10397.0000 1.0000
71.1400 10435.0000 1.0000
71.1600 10453.0000 1.0000
71.1800 10345.0000 1.0000
71.2000 10208.0000 1.0000
71.2200 10353.0000 1.0000
71.2400 10260.0000 1.0000
71.2600 10367.0000 1.0000
71.2800 10229.0000 1.0000
71.3000 10205.0000 1.0000
71.3200 10304.0000 1.0000
71.3400 10207.0000 1.0000
71.3600 10294.0000 1.0000
71.3800 10362.0000 1.0000
71.4000 10198.0000 1.0000
71.4200 10218.0000 1.0000
71.4400 10158.0000 1.0000
71.4600 10204.0000 1.0000
71.4800 10277.0000 1.0000
71.5000 10231.0000 1.0000
71.5200 10314.0000 1.0000
71.5400 10345.0000 1.0000
71.5600 10316.0000 1.0000
71.5800 10328.0000 1.0000
71.6000 10247.0000 1.0000
71.6200 10112.0000 1.0000
71.6400 10294.0000 1.0000
71.6600 10112.0000 1.0000
71.6800 10182.0000 1.0000
71.7000 10320.0000 1.0000
71.7200 10308.0000 1.0000
71.7400 10392.0000 1.0000
71.7600 10311.0000 1.0000
71.7800 10435.0000 1.0000
71.8000 10427.0000 1.0000
71.8200 10271.0000 1.0000
71.8400 10472.0000 1.0000
71.8600 10410.0000 1.0000
71.8800 10929.0000 1.0000
71.9000 10713.0000 1.0000
71.9200 11042.0000 1.0000
71.9400 10970.0000 1.0000
71.9600 11031.0000 1.0000
71.9800 11278.0000 1.0000
72.0000 11249.0000 1.0000
72.0200 10943.0000 1.0000
72.0400 10692.0000 1.0000
72.0600 10872.0000 1.0000
72.0800 10791.0000 1.0000
72.1000 10802.0000 1.0000
72.1200 10665.0000 1.0000
72.1400 10744.0000 1.0000
72.1600 10855.0000 1.0000
72.1800 10734.0000 1.0000
72.2000 10834.0000 1.0000
72.2200 10627.0000 1.0000
72.2400 10769.0000 1.0000
72.2600 10614.0000 1.0000
72.2800 10432.0000 1.0000
72.3000 10481.0000 1.0000
72.3200 10380.0000 1.0000
72.3400 10512.0000 1.0000
72.3600 10392.0000 1.0000
72.3800 10452.0000 1.0000
72.4000 10216.0000 1.0000
72.4200 10511.0000 1.0000
72.4400 10483.0000 1.0000
72.4600 10391.0000 1.0000
72.4800 10423.0000 1.0000
72.5000 10274.0000 1.0000
72.5200 10260.0000 1.0000
72.5400 10331.0000 1.0000
72.5600 10338.0000 1.0000
72.5800 10323.0000 1.0000
72.6000 10172.0000 1.0000
72.6200 10262.0000 1.0000
72.6400 10223.0000 1.0000
72.6600 10069.0000 1.0000
72.6800 10278.0000 1.0000
72.7000 10316.0000 1.0000
72.7200 10214.0000 1.0000
72.7400 10227.0000 1.0000
72.7600 10261.0000 1.0000
72.7800 10375.0000 1.0000
72.8000 10281.0000 1.0000
72.8200 10227.0000 1.0000
72.8400 10294.0000 1.0000
72.8600 10254.0000 1.0000
72.8800 10144.0000 1.0000
72.9000 10067.0000 1.0000
72.9200 10170.0000 1.0000
72.9400 10110.0000 1.0000
72.9600 10091.0000 1.0000
72.9800 10314.0000 1.0000
73.0000 10288.0000 1.0000
73.0200 10310.0000 1.0000
73.0400 10136.0000 1.0000
73.0600 10151.0000 1.0000
73.0800 10274.0000 1.0000
73.1000 10398.0000 1.0000
73.1200 10327.0000 1.0000
73.1400 10022.0000 1.0000
73.1600 10150.0000 1.0000
73.1800 10148.0000 1.0000
73.2000 10159.0000 1.0000
73.2200 9971.0000 1.0000
73.2400 10190.0000 1.0000
73.2600 10137.0000 1.0000
73.2800 10178.0000 1.0000
73.3000 10160.0000 1.0000
73.3200 10332.0000 1.0000
73.3400 10296.0000 1.0000
73.3600 10122.0000 1.0000
73.3800 10295.0000 1.0000
73.4000 10333.0000 1.0000
73.4200 10351.0000 1.0000
73.4400 10512.0000 1.0000
73.4600 10568.0000 1.0000
73.4800 10679.0000 1.0000
73.5000 10563.0000 1.0000
73.5200 10448.0000 1.0000
73.5400 10114.0000 1.0000
73.5600 10300.0000 1.0000
73.5800 10429.0000 1.0000
73.6000 10248.0000 1.0000
73.6200 10273.0000 1.0000
73.6400 10342.0000 1.0000
73.6600 10271.0000 1.0000
73.6800 10323.0000 1.0000
73.7000 10506.0000 1.0000
73.7200 10451.0000 1.0000
73.7400 10248.0000 1.0000
73.7600 10129.0000 1.0000
73.7800 10180.0000 1.0000
73.8000 10220.0000 1.0000
73.8200 10313.0000 1.0000
73.8400 10274.0000 1.0000
73.8600 10194.0000 1.0000
73.8800 10182.0000 1.0000
73.9000 10276.0000 1.0000
73.9200 10259.0000 1.0000
73.9400 10316.0000 1.0000
73.9600 10198.0000 1.0000
73.9800 10377.0000 1.0000
74.0000 10428.0000 1.0000
74.0200 10727.0000 1.0000
74.0400 10603.0000 1.0000
74.0600 10593.0000 1.0000
74.0800 10707.0000 1.0000
74.1000 10663.0000 1.0000
74.1200 10621.0000 1.0000
74.1400 10505.0000 1.0000
74.1600 10575.0000 1.0000
74.1800 10508.0000 1.0000
74.2000 10690.0000 1.0000
74.2200 10619.0000 1.0000
74.2400 10505.0000 1.0000
74.2600 10504.0000 1.0000
74.2800 10456.0000 1.0000
74.3000 10387.0000 1.0000
74.3200 10499.0000 1.0000
74.3400 10330.0000 1.0000
74.3600 10527.0000 1.0000
74.3800 10548.0000 1.0000
74.4000 10343.0000 1.0000
74.4200 10218.0000 1.0000
74.4400 10491.0000 1.0000
74.4600 10374.0000 1.0000
74.4800 10379.0000 1.0000
74.5000 10246.0000 1.0000
74.5200 10364.0000 1.0000
74.5400 10317.0000 1.0000
74.5600 10280.0000 1.0000
74.5800 10178.0000 1.0000
74.6000 10228.0000 1.0000
74.6200 10114.0000 1.0000
74.6400 10140.0000 1.0000
74.6600 10043.0000 1.0000
74.6800 10217.0000 1.0000
74.7000 10312.0000 1.0000
74.7200 10223.0000 1.0000
74.7400 10331.0000 1.0000
74.7600 10023.0000 1.0000
74.7800 10189.0000 1.0000
74.8000 10170.0000 1.0000
74.8200 10324.0000 1.0000
74.8400 10207.0000 1.0000
74.8600 10272.0000 1.0000
74.8800 10227.0000 1.0000
74.9000 10314.0000 1.0000
74.9200 10136.0000 1.0000
74.9400 10258.0000 1.0000
74.9600 10195.0000 1.0000
74.9800 10288.0000 1.0000
75.0000 10148.0000 1.0000
75.0200 10110.0000 1.0000
75.0400 10102.0000 1.0000
75.0600 10254.0000 1.0000
75.0800 10342.0000 1.0000
75.1000 10477.0000 1.0000
75.1200 10448.0000 1.0000
75.1400 10286.0000 1.0000
75.1600 10394.0000 1.0000
75.1800 10436.0000 1.0000
75.2000 10339.0000 1.0000
75.2200 10318.0000 1.0000
75.2400 10500.0000 1.0000
75.2600 10419.0000 1.0000
75.2800 10438.0000 1.0000
75.3000 10428.0000 1.0000
75.3200 10527.0000 1.0000
75.3400 10447.0000 1.0000
75.3600 10630.0000 1.0000
75.3800 10452.0000 1.0000
75.4000 10627.0000 1.0000
75.4200 10747.0000 1.0000
75.4400 10870.0000 1.0000
75.4600 10945.0000 1.0000
75.4800 10963.0000 1.0000
75.5000 10795.0000 1.0000
75.5200 10968.0000 1.0000
75.5400 10725.0000 1.0000
75.5600 10591.0000 1.0000
75.5800 10649.0000 1.0000
75.6000 10795.0000 1.0000
75.6200 10737.0000 1.0000
75.6400 10875.0000 1.0000
75.6600 11264.0000 1.0000
75.6800 11278.0000 1.0000
75.7000 11067.0000 1.0000
75.7200 10758.0000 1.0000
75.7400 10670.0000 1.0000
75.7600 10605.0000 1.0000
75.7800 10453.0000 1.0000
75.8000 10339.0000 1.0000
75.8200 10328.0000 1.0000
75.8400 10531.0000 1.0000
75.8600 10659.0000 1.0000
75.8800 10640.0000 1.0000
75.9000 10641.0000 1.0000
75.9200 10547.0000 1.0000
75.9400 10474.0000 1.0000
75.9600 10486.0000 1.0000
75.9800 10259.0000 1.0000
76.0000 10294.0000 1.0000
76.0200 10360.0000 1.0000
76.0400 10237.0000 1.0000
76.0600 10026.0000 1.0000
76.0800 10201.0000 1.0000
76.1000 10409.0000 1.0000
76.1200 10325.0000 1.0000
76.1400 10332.0000 1.0000
76.1600 10313.0000 1.0000
76.1800 10217.0000 1.0000
76.2000 10164.0000 1.0000
76.2200 10206.0000 1.0000
76.2400 10050.0000 1.0000
76.2600 10169.0000 1.0000
76.2800 10269.0000 1.0000
76.3000 10237.0000 1.0000
76.3200 10251.0000 1.0000
76.3400 10013.0000 1.0000
76.3600 10256.0000 1.0000
76.3800 10337.0000 1.0000
76.4000 10475.0000 1.0000
76.4200 10135.0000 1.0000
76.4400 10164.0000 1.0000
76.4600 10241.0000 1.0000
76.4800 10192.0000 1.0000
76.5000 10225.0000 1.0000
76.5200 10254.0000 1.0000
76.5400 10371.0000 1.0000
76.5600 10332.0000 1.0000
76.5800 10187.0000 1.0000
76.6000 10130.0000 1.0000
76.6200 10160.0000 1.0000
76.6400 10138.0000 1.0000
76.6600 10355.0000 1.0000
76.6800 10354.0000 1.0000
76.7000 10182.0000 1.0000
76.7200 10211.0000 1.0000
76.7400 10313.0000 1.0000
76.7600 10317.0000 1.0000
76.7800 10393.0000 1.0000
76.8000 10356.0000 1.0000
76.8200 10544.0000 1.0000
76.8400 10331.0000 1.0000
76.8600 10498.0000 1.0000
76.8800 10646.0000 1.0000
76.9000 10566.0000 1.0000
76.9200 10697.0000 1.0000
76.9400 10510.0000 1.0000
76.9600 10397.0000 1.0000
76.9800 10401.0000 1.0000
77.0000 10414.0000 1.0000
77.0200 10370.0000 1.0000
77.0400 10430.0000 1.0000
77.0600 10361.0000 1.0000
77.0800 10529.0000 1.0000
77.1000 10459.0000 1.0000
77.1200 10605.0000 1.0000
77.1400 10466.0000 1.0000
77.1600 10453.0000 1.0000
77.1800 10409.0000 1.0000
77.2000 10406.0000 1.0000
77.2200 10299.0000 1.0000
77.2400 10560.0000 1.0000
77.2600 10320.0000 1.0000
77.2800 10504.0000 1.0000
77.3000 10329.0000 1.0000
77.3200 10335.0000 1.0000
77.3400 10311.0000 1.0000
77.3600 10315.0000 1.0000
77.3800 10423.0000 1.0000
77.4000 10288.0000 1.0000
77.4200 10326.0000 1.0000
77.4400 10259.0000 1.0000
77.4600 10454.0000 1.0000
77.4800 10487.0000 1.0000
77.5000 10359.0000 1.0000
77.5200 10307.0000 1.0000
77.5400 10364.0000 1.0000
77.5600 10433.0000 1.0000
77.5800 10336.0000 1.0000
77.6000 10293.0000 1.0000
77.6200 10358.0000 1.0000
77.6400 10618.0000 1.0000
77.6600 10760.0000 1.0000
77.6800 10772.0000 1.0000
77.7000 10944.0000 1.0000
77.7200 10568.0000 1.0000
77.7400 10515.0000 1.0000
77.7600 10529.0000 1.0000
77.7800 10417.0000 1.0000
77.8000 10541.0000 1.0000
77.8200 10630.0000 1.0000
77.8400 10449.0000 1.0000
77.8600 10511.0000 1.0000
77.8800 10541.0000 1.0000
77.9000 10595.0000 1.0000
77.9200 10703.0000 1.0000
77.9400 10669.0000 1.0000
77.9600 10547.0000 1.0000
77.9800 10439.0000 1.0000
78.0000 10397.0000 1.0000
78.0200 10183.0000 1.0000
78.0400 10377.0000 1.0000
78.0600 10410.0000 1.0000
78.0800 10422.0000 1.0000
78.1000 10213.0000 1.0000
78.1200 10319.0000 1.0000
78.1400 10264.0000 1.0000
78.1600 10140.0000 1.0000
78.1800 10123.0000 1.0000
78.2000 10168.0000 1.0000
78.2200 10269.0000 1.0000
78.2400 10237.0000 1.0000
78.2600 10353.0000 1.0000
78.2800 10090.0000 1.0000
78.3000 10223.0000 1.0000
78.3200 10160.0000 1.0000
78.3400 10202.0000 1.0000
78.3600 10185.0000 1.0000
78.3800 10331.0000 1.0000
78.4000 10325.0000 1.0000
78.4200 10257.0000 1.0000
78.4400 10161.0000 1.0000
78.4600 10281.0000 1.0000
78.4800 10119.0000 1.0000
78.5000 10249.0000 1.0000
78.5200 10156.0000 1.0000
78.5400 10124.0000 1.0000
78.5600 10087.0000 1.0000
78.5800 10238.0000 1.0000
78.6000 10191.0000 1.0000
78.6200 10013.0000 1.0000
78.6400 10168.0000 1.0000
78.6600 10157.0000 1.0000
78.6800 10222.0000 1.0000
78.7000 10260.0000 1.0000
78.7200 10196.0000 1.0000
78.7400 10370.0000 1.0000
78.7600 10312.0000 1.0000
78.7800 10412.0000 1.0000
78.8000 10357.0000 1.0000
78.8200 10426.0000 1.0000
78.8400 10460.0000 1.0000
78.8600 10139.0000 1.0000
78.8800 10479.0000 1.0000
78.9000 10284.0000 1.0000
78.9200 10329.0000 1.0000
78.9400 10334.0000 1.0000
78.9600 10371.0000 1.0000
78.9800 10442.0000 1.0000
79.0000 10262.0000 1.0000
79.0200 10302.0000 1.0000
79.0400 10351.0000 1.0000
79.0600 10298.0000 1.0000
79.0800 10629.0000 1.0000
79.1000 10387.0000 1.0000
79.1200 10203.0000 1.0000
79.1400 10457.0000 1.0000
79.1600 10111.0000 1.0000
79.1800 10209.0000 1.0000
79.2000 10477.0000 1.0000
79.2200 10395.0000 1.0000
79.2400 10421.0000 1.0000
79.2600 10399.0000 1.0000
79.2800 10343.0000 1.0000
79.3000 10285.0000 1.0000
79.3200 10260.0000 1.0000
79.3400 10396.0000 1.0000
79.3600 10389.0000 1.0000
79.3800 10257.0000 1.0000
79.4000 10290.0000 1.0000
79.4200 10244.0000 1.0000
79.4400 10543.0000 1.0000
79.4600 10260.0000 1.0000
79.4800 10430.0000 1.0000
79.5000 10388.0000 1.0000
79.5200 10254.0000 1.0000
79.5400 10328.0000 1.0000
79.5600 10191.0000 1.0000
79.5800 10263.0000 1.0000
79.6000 10294.0000 1.0000
79.6200 10193.0000 1.0000
79.6400 10229.0000 1.0000
79.6600 10330.0000 1.0000
79.6800 10386.0000 1.0000
79.7000 10397.0000 1.0000
79.7200 10264.0000 1.0000
79.7400 10153.0000 1.0000
79.7600 10296.0000 1.0000
79.7800 10291.0000 1.0000
79.8000 10407.0000 1.0000
79.8200 10520.0000 1.0000
79.8400 10660.0000 1.0000
79.8600 10834.0000 1.0000
79.8800 11480.0000 1.0000
79.9000 11511.0000 1.0000
79.9200 11178.0000 1.0000
79.9400 10921.0000 1.0000
79.9600 10554.0000 1.0000
79.9800 10395.0000 1.0000
80.0000 10572.0000 1.0000
80.0200 10465.0000 1.0000
80.0400 10619.0000 1.0000
80.0600 10865.0000 1.0000
80.0800 10829.0000 1.0000
80.1000 10871.0000 1.0000
80.1200 10982.0000 1.0000
80.1400 10855.0000 1.0000
80.1600 10487.0000 1.0000
80.1800 10458.0000 1.0000
80.2000 10394.0000 1.0000
80.2200 10545.0000 1.0000
80.2400 10287.0000 1.0000
80.2600 10539.0000 1.0000
80.2800 10410.0000 1.0000
80.3000 10420.0000 1.0000
80.3200 10207.0000 1.0000
80.3400 10376.0000 1.0000
80.3600 10256.0000 1.0000
80.3800 10498.0000 1.0000
80.4000 10294.0000 1.0000
80.4200 10340.0000 1.0000
80.4400 10231.0000 1.0000
80.4600 10376.0000 1.0000
80.4800 10393.0000 1.0000
80.5000 10295.0000 1.0000
80.5200 10418.0000 1.0000
80.5400 10515.0000 1.0000
80.5600 10367.0000 1.0000
80.5800 10557.0000 1.0000
80.6000 10584.0000 1.0000
80.6200 10620.0000 1.0000
80.6400 10726.0000 1.0000
80.6600 10635.0000 1.0000
80.6800 10827.0000 1.0000
80.7000 10796.0000 1.0000
80.7200 10827.0000 1.0000
80.7400 10963.0000 1.0000
80.7600 10641.0000 1.0000
80.7800 10906.0000 1.0000
80.8000 10577.0000 1.0000
80.8200 10570.0000 1.0000
80.8400 10518.0000 1.0000
80.8600 10631.0000 1.0000
80.8800 10554.0000 1.0000
80.9000 10638.0000 1.0000
80.9200 10718.0000 1.0000
80.9400 10569.0000 1.0000
80.9600 10618.0000 1.0000
80.9800 10568.0000 1.0000
81.0000 10805.0000 1.0000
81.0200 10527.0000 1.0000
81.0400 10375.0000 1.0000
81.0600 10339.0000 1.0000
81.0800 10418.0000 1.0000
81.1000 10544.0000 1.0000
81.1200 10530.0000 1.0000
81.1400 10471.0000 1.0000
81.1600 10654.0000 1.0000
81.1800 11047.0000 1.0000
81.2000 10883.0000 1.0000
81.2200 10921.0000 1.0000
81.2400 10832.0000 1.0000
81.2600 10647.0000 1.0000
81.2800 10426.0000 1.0000
81.3000 10337.0000 1.0000
81.3200 10720.0000 1.0000
81.3400 10410.0000 1.0000
81.3600 10440.0000 1.0000
81.3800 10387.0000 1.0000
81.4000 10637.0000 1.0000
81.4200 10801.0000 1.0000
81.4400 10832.0000 1.0000
81.4600 11092.0000 1.0000
81.4800 11309.0000 1.0000
81.5000 11306.0000 1.0000
81.5200 10978.0000 1.0000
81.5400 10806.0000 1.0000
81.5600 10620.0000 1.0000
81.5800 10538.0000 1.0000
81.6000 10598.0000 1.0000
81.6200 10436.0000 1.0000
81.6400 10335.0000 1.0000
81.6600 10219.0000 1.0000
81.6800 10267.0000 1.0000
81.7000 10331.0000 1.0000
81.7200 10541.0000 1.0000
81.7400 10817.0000 1.0000
81.7600 10749.0000 1.0000
81.7800 10332.0000 1.0000
81.8000 10669.0000 1.0000
81.8200 10366.0000 1.0000
81.8400 10300.0000 1.0000
81.8600 10405.0000 1.0000
81.8800 10396.0000 1.0000
81.9000 10341.0000 1.0000
81.9200 10233.0000 1.0000
81.9400 10362.0000 1.0000
81.9600 10313.0000 1.0000
81.9800 10298.0000 1.0000
82.0000 10467.0000 1.0000
82.0200 10195.0000 1.0000
82.0400 10382.0000 1.0000
82.0600 10003.0000 1.0000
82.0800 10160.0000 1.0000
82.1000 10148.0000 1.0000
82.1200 10135.0000 1.0000
82.1400 10188.0000 1.0000
82.1600 10049.0000 1.0000
82.1800 10381.0000 1.0000
82.2000 10233.0000 1.0000
82.2200 10194.0000 1.0000
82.2400 10270.0000 1.0000
82.2600 10233.0000 1.0000
82.2800 10228.0000 1.0000
82.3000 10270.0000 1.0000
82.3200 10158.0000 1.0000
82.3400 10324.0000 1.0000
82.3600 9909.0000 1.0000
82.3800 10295.0000 1.0000
82.4000 10286.0000 1.0000
82.4200 10263.0000 1.0000
82.4400 10283.0000 1.0000
82.4600 10352.0000 1.0000
82.4800 10385.0000 1.0000
82.5000 10305.0000 1.0000
82.5200 10180.0000 1.0000
82.5400 10208.0000 1.0000
82.5600 10330.0000 1.0000
82.5800 10157.0000 1.0000
82.6000 10303.0000 1.0000
82.6200 10206.0000 1.0000
82.6400 10201.0000 1.0000
82.6600 10327.0000 1.0000
82.6800 10374.0000 1.0000
82.7000 10351.0000 1.0000
82.7200 10220.0000 1.0000
82.7400 10360.0000 1.0000
82.7600 10380.0000 1.0000
82.7800 10309.0000 1.0000
82.8000 10352.0000 1.0000
82.8200 10528.0000 1.0000
82.8400 10520.0000 1.0000
82.8600 10552.0000 1.0000
82.8800 10478.0000 1.0000
82.9000 10578.0000 1.0000
82.9200 10640.0000 1.0000
82.9400 10650.0000 1.0000
82.9600 10556.0000 1.0000
82.9800 10729.0000 1.0000
83.0000 10694.0000 1.0000
83.0200 10715.0000 1.0000
83.0400 10570.0000 1.0000
83.0600 10584.0000 1.0000
83.0800 10418.0000 1.0000
83.1000 10650.0000 1.0000
83.1200 10465.0000 1.0000
83.1400 10507.0000 1.0000
83.1600 10394.0000 1.0000
83.1800 10499.0000 1.0000
83.2000 10415.0000 1.0000
83.2200 10626.0000 1.0000
83.2400 10537.0000 1.0000
83.2600 10681.0000 1.0000
83.2800 10511.0000 1.0000
83.3000 10536.0000 1.0000
83.3200 10380.0000 1.0000
83.3400 10336.0000 1.0000
83.3600 10299.0000 1.0000
83.3800 10320.0000 1.0000
83.4000 10387.0000 1.0000
83.4200 10485.0000 1.0000
83.4400 10333.0000 1.0000
83.4600 10152.0000 1.0000
83.4800 10497.0000 1.0000
83.5000 10412.0000 1.0000
83.5200 10380.0000 1.0000
83.5400 10226.0000 1.0000
83.5600 10381.0000 1.0000
83.5800 10349.0000 1.0000
83.6000 10384.0000 1.0000
83.6200 10357.0000 1.0000
83.6400 10259.0000 1.0000
83.6600 10400.0000 1.0000
83.6800 10405.0000 1.0000
83.7000 10378.0000 1.0000
83.7200 10466.0000 1.0000
83.7400 10367.0000 1.0000
83.7600 10412.0000 1.0000
83.7800 10421.0000 1.0000
83.8000 10617.0000 1.0000
83.8200 10743.0000 1.0000
83.8400 10865.0000 1.0000
83.8600 10900.0000 1.0000
83.8800 10809.0000 1.0000
83.9000 10540.0000 1.0000
83.9200 10435.0000 1.0000
83.9400 10354.0000 1.0000
83.9600 10543.0000 1.0000
83.9800 10532.0000 1.0000
84.0000 10491.0000 1.0000
84.0200 10559.0000 1.0000
84.0400 10338.0000 1.0000
84.0600 10314.0000 1.0000
84.0800 10416.0000 1.0000
84.1000 10605.0000 1.0000
84.1200 10631.0000 1.0000
84.1400 10474.0000 1.0000
84.1600 10452.0000 1.0000
84.1800 10336.0000 1.0000
84.2000 10451.0000 1.0000
84.2200 10270.0000 1.0000
84.2400 10308.0000 1.0000
84.2600 10327.0000 1.0000
84.2800 10420.0000 1.0000
84.3000 10407.0000 1.0000
84.3200 10428.0000 1.0000
84.3400 10591.0000 1.0000
84.3600 10616.0000 1.0000
84.3800 10531.0000 1.0000
84.4000 10283.0000 1.0000
84.4200 10227.0000 1.0000
84.4400 10314.0000 1.0000
84.4600 10339.0000 1.0000
84.4800 10207.0000 1.0000
84.5000 10313.0000 1.0000
84.5200 10458.0000 1.0000
84.5400 10303.0000 1.0000
84.5600 10356.0000 1.0000
84.5800 10424.0000 1.0000
84.6000 10255.0000 1.0000
84.6200 10472.0000 1.0000
84.6400 10345.0000 1.0000
84.6600 10376.0000 1.0000
84.6800 10427.0000 1.0000
84.7000 10445.0000 1.0000
84.7200 10376.0000 1.0000
84.7400 10367.0000 1.0000
84.7600 10483.0000 1.0000
84.7800 10563.0000 1.0000
84.8000 10617.0000 1.0000
84.8200 10558.0000 1.0000
84.8400 10650.0000 1.0000
84.8600 10370.0000 1.0000
84.8800 10709.0000 1.0000
84.9000 10767.0000 1.0000
84.9200 11050.0000 1.0000
84.9400 11065.0000 1.0000
84.9600 10978.0000 1.0000
84.9800 11048.0000 1.0000
85.0000 10898.0000 1.0000
85.0200 10760.0000 1.0000
85.0400 10759.0000 1.0000
85.0600 10583.0000 1.0000
85.0800 10429.0000 1.0000
85.1000 10755.0000 1.0000
85.1200 10815.0000 1.0000
85.1400 10625.0000 1.0000
85.1600 10458.0000 1.0000
85.1800 10801.0000 1.0000
85.2000 10718.0000 1.0000
85.2200 10551.0000 1.0000
85.2400 10518.0000 1.0000
85.2600 10745.0000 1.0000
85.2800 10515.0000 1.0000
85.3000 10574.0000 1.0000
85.3200 10748.0000 1.0000
85.3400 10360.0000 1.0000
85.3600 10494.0000 1.0000
85.3800 10527.0000 1.0000
85.4000 10512.0000 1.0000
85.4200 10463.0000 1.0000
85.4400 10351.0000 1.0000
85.4600 10309.0000 1.0000
85.4800 10356.0000 1.0000
85.5000 10285.0000 1.0000
85.5200 10283.0000 1.0000
85.5400 10536.0000 1.0000
85.5600 10292.0000 1.0000
85.5800 10362.0000 1.0000
85.6000 10215.0000 1.0000
85.6200 10217.0000 1.0000
85.6400 10089.0000 1.0000
85.6600 10352.0000 1.0000
85.6800 10236.0000 1.0000
85.7000 10287.0000 1.0000
85.7200 10233.0000 1.0000
85.7400 10355.0000 1.0000
85.7600 10331.0000 1.0000
85.7800 10273.0000 1.0000
85.8000 10186.0000 1.0000
85.8200 10278.0000 1.0000
85.8400 10287.0000 1.0000
85.8600 10219.0000 1.0000
85.8800 10201.0000 1.0000
85.9000 10338.0000 1.0000
85.9200 10134.0000 1.0000
85.9400 10387.0000 1.0000
85.9600 10298.0000 1.0000
85.9800 10310.0000 1.0000
86.0000 10407.0000 1.0000
86.0200 10199.0000 1.0000
86.0400 10309.0000 1.0000
86.0600 10417.0000 1.0000
86.0800 10390.0000 1.0000
86.1000 10145.0000 1.0000
86.1200 10287.0000 1.0000
86.1400 10454.0000 1.0000
86.1600 10321.0000 1.0000
86.1800 10377.0000 1.0000
86.2000 10242.0000 1.0000
86.2200 10222.0000 1.0000
86.2400 10283.0000 1.0000
86.2600 10465.0000 1.0000
86.2800 10599.0000 1.0000
86.3000 10363.0000 1.0000
86.3200 10456.0000 1.0000
86.3400 10429.0000 1.0000
86.3600 10414.0000 1.0000
86.3800 10407.0000 1.0000
86.4000 10399.0000 1.0000
86.4200 10281.0000 1.0000
86.4400 10297.0000 1.0000
86.4600 10556.0000 1.0000
86.4800 10188.0000 1.0000
86.5000 10546.0000 1.0000
86.5200 10240.0000 1.0000
86.5400 10416.0000 1.0000
86.5600 10302.0000 1.0000
86.5800 10213.0000 1.0000
86.6000 10289.0000 1.0000
86.6200 10569.0000 1.0000
86.6400 10397.0000 1.0000
86.6600 10405.0000 1.0000
86.6800 10306.0000 1.0000
86.7000 10348.0000 1.0000
86.7200 10515.0000 1.0000
86.7400 10492.0000 1.0000
86.7600 10320.0000 1.0000
86.7800 10530.0000 1.0000
86.8000 10372.0000 1.0000
86.8200 10541.0000 1.0000
86.8400 10431.0000 1.0000
86.8600 10577.0000 1.0000
86.8800 10446.0000 1.0000
86.9000 10458.0000 1.0000
86.9200 10515.0000 1.0000
86.9400 10361.0000 1.0000
86.9600 10310.0000 1.0000
86.9800 10383.0000 1.0000
87.0000 10481.0000 1.0000
87.0200 10630.0000 1.0000
87.0400 10509.0000 1.0000
87.0600 10513.0000 1.0000
87.0800 10347.0000 1.0000
87.1000 10272.0000 1.0000
87.1200 10390.0000 1.0000
87.1400 10601.0000 1.0000
87.1600 10467.0000 1.0000
87.1800 10472.0000 1.0000
87.2000 10433.0000 1.0000
87.2200 10372.0000 1.0000
87.2400 10374.0000 1.0000
87.2600 10541.0000 1.0000
87.2800 10503.0000 1.0000
87.3000 10467.0000 1.0000
87.3200 10538.0000 1.0000
87.3400 10439.0000 1.0000
87.3600 10227.0000 1.0000
87.3800 10246.0000 1.0000
87.4000 10244.0000 1.0000
87.4200 10325.0000 1.0000
87.4400 10367.0000 1.0000
87.4600 10208.0000 1.0000
87.4800 10246.0000 1.0000
87.5000 10266.0000 1.0000
87.5200 10292.0000 1.0000
87.5400 10422.0000 1.0000
87.5600 10435.0000 1.0000
87.5800 10313.0000 1.0000
87.6000 10266.0000 1.0000
87.6200 10346.0000 1.0000
87.6400 10461.0000 1.0000
87.6600 10279.0000 1.0000
87.6800 10281.0000 1.0000
87.7000 10480.0000 1.0000
87.7200 10299.0000 1.0000
87.7400 10337.0000 1.0000
87.7600 10179.0000 1.0000
87.7800 10304.0000 1.0000
87.8000 10340.0000 1.0000
87.8200 10311.0000 1.0000
87.8400 10476.0000 1.0000
87.8600 10432.0000 1.0000
87.8800 10389.0000 1.0000
87.9000 10314.0000 1.0000
87.9200 10274.0000 1.0000
87.9400 10399.0000 1.0000
87.9600 10420.0000 1.0000
87.9800 10395.0000 1.0000
88.0000 10350.0000 1.0000
88.0200 10224.0000 1.0000
88.0400 10407.0000 1.0000
88.0600 10395.0000 1.0000
88.0800 10349.0000 1.0000
88.1000 10521.0000 1.0000
88.1200 10489.0000 1.0000
88.1400 10356.0000 1.0000
88.1600 10405.0000 1.0000
88.1800 10401.0000 1.0000
88.2000 10359.0000 1.0000
88.2200 10477.0000 1.0000
88.2400 10262.0000 1.0000
88.2600 10562.0000 1.0000
88.2800 10321.0000 1.0000
88.3000 10359.0000 1.0000
88.3200 10405.0000 1.0000
88.3400 10433.0000 1.0000
88.3600 10522.0000 1.0000
88.3800 10545.0000 1.0000
88.4000 10505.0000 1.0000
88.4200 10355.0000 1.0000
88.4400 10465.0000 1.0000
88.4600 10479.0000 1.0000
88.4800 10533.0000 1.0000
88.5000 10564.0000 1.0000
88.5200 10985.0000 1.0000
88.5400 11058.0000 1.0000
88.5600 11138.0000 1.0000
88.5800 11019.0000 1.0000
88.6000 11272.0000 1.0000
88.6200 11007.0000 1.0000
88.6400 10699.0000 1.0000
88.6600 10771.0000 1.0000
88.6800 10662.0000 1.0000
88.7000 10716.0000 1.0000
88.7200 10668.0000 1.0000
88.7400 10666.0000 1.0000
88.7600 10644.0000 1.0000
88.7800 10752.0000 1.0000
88.8000 10837.0000 1.0000
88.8200 10797.0000 1.0000
88.8400 10937.0000 1.0000
88.8600 10762.0000 1.0000
88.8800 10803.0000 1.0000
88.9000 10843.0000 1.0000
88.9200 10426.0000 1.0000
88.9400 10735.0000 1.0000
88.9600 10668.0000 1.0000
88.9800 10559.0000 1.0000
89.0000 10586.0000 1.0000
89.0200 10503.0000 1.0000
89.0400 10605.0000 1.0000
89.0600 10471.0000 1.0000
89.0800 10479.0000 1.0000
89.1000 10440.0000 1.0000
89.1200 10545.0000 1.0000
89.1400 10376.0000 1.0000
89.1600 10462.0000 1.0000
89.1800 10352.0000 1.0000
89.2000 10435.0000 1.0000
89.2200 10422.0000 1.0000
89.2400 10316.0000 1.0000
89.2600 10338.0000 1.0000
89.2800 10521.0000 1.0000
89.3000 10426.0000 1.0000
89.3200 10344.0000 1.0000
89.3400 10409.0000 1.0000
89.3600 10496.0000 1.0000
89.3800 10489.0000 1.0000
89.4000 10361.0000 1.0000
89.4200 10327.0000 1.0000
89.4400 10478.0000 1.0000
89.4600 10247.0000 1.0000
89.4800 10372.0000 1.0000
89.5000 10356.0000 1.0000
89.5200 10442.0000 1.0000
89.5400 10469.0000 1.0000
89.5600 10388.0000 1.0000
89.5800 10524.0000 1.0000
89.6000 10608.0000 1.0000
89.6200 10549.0000 1.0000
89.6400 10587.0000 1.0000
89.6600 10650.0000 1.0000
89.6800 10708.0000 1.0000
89.7000 10763.0000 1.0000
89.7200 10820.0000 1.0000
89.7400 10803.0000 1.0000
89.7600 10789.0000 1.0000
89.7800 10900.0000 1.0000
89.8000 11107.0000 1.0000
89.8200 10946.0000 1.0000
89.8400 11032.0000 1.0000
89.8600 10752.0000 1.0000
89.8800 10672.0000 1.0000
89.9000 10749.0000 1.0000
89.9200 10717.0000 1.0000
89.9400 10805.0000 1.0000
89.9600 10730.0000 1.0000
89.9800 10659.0000 1.0000
90.0000 10770.0000 1.0000
*RAS_INT_END
*RAS_TEMPERATURE_START
*RAS_TEMPERATURE_END
*RAS_DATA_END
